Geotek MSCL 7.9 - TN336_JPC50-61.raw created at 10:43:28 on 1/29/2016.


Core Depth	Section	Sect Depth	CTD 	Tr. Time 	PW Amp   	A Gamma  	Mag Sus  	Temp     	NC Res   
m		cm	mm	µsec		cps	SI x 10^-5	°C	mV

-0.638	cal	0.03	2.93	999.00	0.0000	12997	-2.0	18.94	7.5
-0.578	cal	6.03	2.59	96.57	0.0159	6596	-2.0	18.94	27.2
-0.518	cal	12.03	-0.04	95.52	0.0384	6732	-2.0	18.94	29.0
-0.458	cal	18.03	0.33	95.85	0.0269	6682	-2.0	18.94	28.4
-0.398	cal	24.03	3.37	97.33	0.0016	6705	-2.0	18.98	36.2
-0.338	cal	30.03	5.07	98.08	0.0094	6595	-2.0	18.98	93.1
-0.278	cal	36.03	3.78	96.61	0.0050	6500	-2.0	18.98	572.0
-0.218	cal	42.03	1.18	94.92	0.0028	6674	-2.0	18.99	774.5
-0.158	cal	48.03	-0.30	94.70	0.0172	6590	-2.0	18.99	774.6
-0.098	cal	54.03	0.62	95.27	0.0039	6554	-1.0	18.99	785.6
-0.038	cal	60.03	2.18	95.45	0.0151	6535	3.0	19.03	612.2
0.002	1	0.20	6.71	999.00	0.0000	6949	17.0	19.04	287.8
0.012	1	1.20	6.05	999.00	0.0000	5425	22.0	19.04	354.2
0.022	1	2.20	5.90	106.91	0.0009	5385	25.0	19.04	467.7
0.032	1	3.20	5.75	101.73	0.0004	5400	27.0	19.05	582.3
0.042	1	4.20	5.37	100.27	0.0002	5471	28.0	19.04	663.6
0.052	1	5.20	1.27	94.02	0.0020	5473	30.0	19.03	720.0
0.062	1	6.20	-0.14	93.30	0.0094	5349	32.0	19.04	752.4
0.072	1	7.20	-0.42	93.26	0.0095	5447	34.0	19.04	774.1
0.082	1	8.20	-0.47	93.23	0.0048	5413	35.0	19.04	784.1
0.092	1	9.20	-0.51	93.46	0.0072	5575	34.0	19.04	791.9
0.102	1	10.20	-0.52	93.65	0.0162	5533	32.0	19.05	792.9
0.112	1	11.20	-0.52	93.47	0.0105	5469	30.0	19.05	797.1
0.122	1	12.20	-0.52	93.68	0.0118	5543	29.0	19.05	774.7
0.132	1	13.20	-0.52	94.20	0.0212	5511	27.0	19.05	787.0
0.142	1	14.20	-0.51	94.50	0.0224	5534	27.0	19.06	794.9
0.152	1	15.20	-0.52	94.18	0.0120	5389	26.0	19.05	799.7
0.162	1	16.20	-0.52	93.63	0.0051	5553	26.0	19.05	801.4
0.172	1	17.20	-0.52	94.20	0.0178	5525	24.0	19.05	798.6
0.182	1	18.20	-0.52	94.63	0.0342	5503	24.0	19.06	799.5
0.192	1	19.20	-0.42	94.82	0.0358	5519	23.0	19.06	796.8
0.202	1	20.20	-0.27	94.68	0.0325	5565	22.0	19.06	796.5
0.212	1	21.20	0.04	94.86	0.0173	5477	22.0	19.07	793.9
0.222	1	22.20	-0.01	94.60	0.0096	5526	20.0	19.06	789.9
0.232	1	23.20	2.29	96.02	0.0029	5469	22.0	19.06	784.3
0.242	1	24.20	2.27	96.36	0.0056	5587	22.0	19.06	775.9
0.252	1	25.20	2.45	95.35	0.0006	5341	21.0	19.07	761.2
0.262	1	26.20	2.76	95.88	0.0065	5334	20.0	19.06	739.3
0.272	1	27.20	2.39	95.40	0.0032	5464	20.0	19.07	696.9
0.282	1	28.20	2.08	94.99	0.0007	5344	19.0	19.08	628.6
0.292	1	29.20	2.55	94.89	0.0024	5362	19.0	19.07	521.4
0.302	1	30.20	4.63	96.95	0.0095	5362	19.0	19.07	393.0
0.312	1	31.20	6.56	999.00	0.0000	5435	17.0	19.08	283.0
0.322	2	0.28	6.73	999.00	0.0000	8093	17.0	19.09	244.1
0.332	2	1.28	6.36	999.00	0.0000	6633	16.0	19.09	298.4
0.342	2	2.28	6.48	137.77	0.0000	6167	16.0	19.09	419.0
0.352	2	3.28	6.06	132.49	0.0001	6183	16.0	19.09	543.9
0.362	2	4.28	5.25	999.00	0.0000	6144	17.0	19.09	620.9
0.372	2	5.28	1.48	146.67	0.0000	5752	18.0	19.09	660.5
0.382	2	6.28	0.05	121.50	0.0002	5894	19.0	19.09	682.4
0.392	2	7.28	-0.41	101.77	0.0003	5935	20.0	19.10	693.0
0.402	2	8.28	-0.47	94.10	0.0005	5525	20.0	19.10	703.5
0.412	2	9.28	-0.53	94.87	0.0021	5470	21.0	19.10	711.5
0.422	2	10.28	-0.52	94.86	0.0021	5445	20.0	19.10	717.5
0.432	2	11.28	-0.53	94.86	0.0022	5464	20.0	19.09	720.5
0.442	2	12.28	-0.52	94.63	0.0025	5403	19.0	19.10	722.9
0.452	2	13.28	-0.55	94.45	0.0072	5479	20.0	19.10	725.1
0.462	2	14.28	-0.48	94.91	0.0048	5484	20.0	19.10	726.8
0.472	2	15.28	-0.48	94.88	0.0039	5431	21.0	19.11	727.6
0.482	2	16.28	-0.45	94.67	0.0065	5375	21.0	19.11	726.5
0.492	2	17.28	-0.45	94.85	0.0085	5339	22.0	19.11	726.9
0.502	2	18.28	-0.38	94.91	0.0128	5343	22.0	19.11	727.4
0.512	2	19.28	-0.38	94.96	0.0104	5261	23.0	19.11	727.8
0.522	2	20.28	-0.32	95.27	0.0101	5367	24.0	19.12	727.9
0.532	2	21.28	-0.28	95.37	0.0174	5294	24.0	19.12	724.3
0.542	2	22.28	-0.19	95.40	0.0180	5245	24.0	19.12	721.5
0.552	2	23.28	-0.18	95.38	0.0184	5168	24.0	19.13	719.9
0.562	2	24.28	-0.07	95.15	0.0124	5119	24.0	19.12	719.5
0.572	2	25.28	-0.02	94.95	0.0096	5265	24.0	19.13	724.1
0.582	2	26.28	-0.02	95.38	0.0184	5153	23.0	19.13	726.8
0.592	2	27.28	0.03	95.62	0.0087	5174	22.0	19.13	728.0
0.602	2	28.28	0.10	95.48	0.0139	5179	21.0	19.13	727.2
0.612	2	29.28	0.18	95.42	0.0152	5178	21.0	19.14	730.2
0.622	2	30.28	0.18	95.54	0.0192	5272	20.0	19.13	730.8
0.632	2	31.28	0.14	95.53	0.0136	5251	20.0	19.14	724.7
0.642	2	32.28	0.18	95.32	0.0107	5171	20.0	19.14	722.6
0.652	2	33.28	0.18	95.31	0.0154	5185	20.0	19.14	717.1
0.662	2	34.28	0.18	95.73	0.0134	5175	19.0	19.14	707.8
0.672	2	35.28	0.29	95.76	0.0104	5190	20.0	19.14	696.6
0.682	2	36.28	0.20	95.77	0.0113	5213	20.0	19.15	688.6
0.692	2	37.28	0.23	95.76	0.0105	5167	20.0	19.15	679.8
0.702	2	38.28	0.26	95.66	0.0117	5275	9.0	19.15	671.3
0.712	2	39.28	0.24	95.70	0.0152	5258	19.0	19.16	663.0
0.722	2	40.28	0.23	95.71	0.0179	5215	18.0	19.15	657.6
0.732	2	41.28	0.27	95.70	0.0196	5211	19.0	19.16	653.5
0.742	2	42.28	0.23	95.75	0.0154	5207	19.0	19.16	652.1
0.752	2	43.28	0.25	95.63	0.0277	5191	19.0	19.17	650.3
0.762	2	44.28	0.24	95.65	0.0231	5225	19.0	19.17	648.9
0.772	2	45.28	0.23	95.68	0.0197	5199	19.0	19.17	647.4
0.782	2	46.28	0.23	95.69	0.0215	5159	19.0	19.17	649.1
0.792	2	47.28	0.21	95.64	0.0248	5284	19.0	19.17	649.0
0.802	2	48.28	0.18	95.68	0.0255	5281	18.0	19.18	652.1
0.812	2	49.28	0.38	95.80	0.0220	5218	18.0	19.18	655.3
0.822	2	50.28	0.33	95.79	0.0237	5215	18.0	19.18	660.0
0.832	2	51.28	0.43	95.83	0.0213	5226	18.0	19.19	663.3
0.842	2	52.28	0.57	95.96	0.0230	5257	17.0	19.18	664.3
0.852	2	53.28	0.65	96.04	0.0195	5289	17.0	19.19	666.0
0.862	2	54.28	0.76	96.02	0.0206	5258	16.0	19.19	667.0
0.872	2	55.28	0.80	96.02	0.0218	5222	16.0	19.19	667.6
0.882	2	56.28	0.84	96.03	0.0217	5240	16.0	19.20	667.5
0.892	2	57.28	0.80	96.03	0.0197	5219	16.0	19.20	667.1
0.902	2	58.28	0.70	95.90	0.0143	5237	15.0	19.20	664.8
0.912	2	59.28	0.65	95.85	0.0134	5249	15.0	19.20	661.2
0.922	2	60.28	0.60	95.80	0.0168	5235	14.0	19.20	658.4
0.932	2	61.28	0.52	95.68	0.0224	5225	14.0	19.21	655.2
0.942	2	62.28	0.52	95.71	0.0190	5136	14.0	19.21	649.7
0.952	2	63.28	0.47	95.65	0.0226	5184	13.0	19.21	645.7
0.962	2	64.28	0.35	95.69	0.0260	5135	13.0	19.21	640.7
0.972	2	65.28	0.32	95.72	0.0283	5219	13.0	19.22	634.4
0.982	2	66.28	0.27	95.73	0.0246	5126	13.0	19.22	630.3
0.992	2	67.28	0.19	95.71	0.0251	5172	12.0	19.22	629.1
1.002	2	68.28	0.17	95.68	0.0286	5174	13.0	19.23	626.3
1.012	2	69.28	0.12	95.73	0.0307	5264	12.0	19.23	623.0
1.022	2	70.28	0.12	95.65	0.0298	5163	12.0	19.23	620.0
1.032	2	71.28	0.08	95.42	0.0487	5175	12.0	19.23	621.0
1.042	2	72.28	0.03	95.64	0.0393	5107	11.0	19.23	621.7
1.052	2	73.28	-0.03	95.67	0.0292	5177	11.0	19.24	622.3
1.062	2	74.28	-0.06	95.67	0.0296	5143	11.0	19.24	620.4
1.072	2	75.28	-0.07	95.70	0.0294	5125	10.0	19.24	625.6
1.082	2	76.28	-0.12	95.53	0.0245	5164	10.0	19.25	627.6
1.092	2	77.28	-0.18	95.52	0.0314	5122	10.0	19.25	632.3
1.102	2	78.28	-0.21	95.44	0.0273	5137	10.0	19.25	634.2
1.112	2	79.28	-0.28	95.46	0.0254	5049	10.0	19.25	636.2
1.122	2	80.28	-0.33	95.53	0.0290	5132	10.0	19.26	639.0
1.132	2	81.28	-0.38	95.39	0.0246	5160	10.0	19.26	643.2
1.142	2	82.28	-0.48	95.33	0.0273	5125	9.0	19.26	645.7
1.152	2	83.28	-0.48	95.37	0.0266	5051	10.0	19.27	650.2
1.162	2	84.28	-0.48	95.39	0.0211	5060	9.0	19.27	652.6
1.172	2	85.28	-0.43	95.22	0.0373	5094	9.0	19.32	651.2
1.182	2	86.28	-0.50	95.39	0.0263	5090	8.0	19.32	650.5
1.192	2	87.28	-0.58	95.27	0.0218	5102	9.0	19.32	649.6
1.202	2	88.28	-0.50	95.05	0.0398	5096	9.0	19.33	649.0
1.212	2	89.28	-0.53	95.09	0.0419	5133	8.0	19.33	647.6
1.222	2	90.28	-0.53	95.19	0.0435	5089	9.0	19.34	645.1
1.232	2	91.28	-0.53	95.24	0.0331	5099	8.0	19.34	643.5
1.242	2	92.28	-0.48	95.28	0.0343	5119	9.0	19.34	639.6
1.252	2	93.28	-0.47	95.37	0.0303	5094	9.0	19.34	636.9
1.262	2	94.28	-0.43	95.62	0.0195	5098	9.0	19.34	635.6
1.272	2	95.28	-0.37	95.49	0.0144	5141	9.0	19.34	634.5
1.282	2	96.28	-0.27	95.32	0.0233	5028	9.0	19.34	635.6
1.292	2	97.28	-0.20	95.41	0.0286	5060	9.0	19.35	633.8
1.302	2	98.28	-0.14	95.70	0.0207	5082	9.0	19.35	634.2
1.312	2	99.28	-0.01	95.69	0.0187	5128	10.0	19.35	632.8
1.322	2	100.28	0.13	95.64	0.0164	5120	10.0	19.35	636.0
1.332	2	101.28	0.23	95.64	0.0173	5048	10.0	19.35	635.1
1.342	2	102.28	0.29	95.69	0.0191	5110	10.0	19.35	630.1
1.352	2	103.28	0.38	95.63	0.0271	5090	10.0	19.36	625.5
1.362	2	104.28	0.48	95.69	0.0258	5039	10.0	19.35	615.4
1.372	2	105.28	0.58	95.75	0.0186	5026	10.0	19.36	594.3
1.382	2	106.28	0.63	95.77	0.0174	4990	11.0	19.35	591.2
1.392	2	107.28	0.68	95.76	0.0262	5053	11.0	19.36	589.0
1.402	2	108.28	0.81	95.85	0.0295	5063	11.0	19.35	588.5
1.412	2	109.28	0.80	96.02	0.0247	5030	12.0	19.35	586.0
1.422	2	110.28	0.90	96.04	0.0269	5102	12.0	19.35	583.6
1.432	2	111.28	0.96	96.11	0.0225	4982	13.0	19.35	582.6
1.442	2	112.28	1.21	96.26	0.0216	4966	14.0	19.36	583.4
1.452	2	113.28	1.44	96.42	0.0221	5102	14.0	19.35	581.0
1.462	2	114.28	1.62	96.20	0.0073	5008	15.0	19.36	575.1
1.472	2	115.28	1.88	96.50	0.0037	5000	16.0	19.36	567.9
1.482	2	116.28	3.11	96.86	0.0009	4950	18.0	19.37	552.0
1.492	2	117.28	2.94	97.42	0.0020	4940	20.0	19.36	529.0
1.502	2	118.28	3.03	999.00	0.0000	4876	23.0	19.37	492.3
1.512	2	119.28	3.19	97.12	0.0014	4752	27.0	19.36	439.9
1.522	2	120.28	3.21	96.92	0.0005	4596	32.0	19.37	377.1
1.532	2	121.28	2.91	96.32	0.0005	4617	37.0	19.36	313.0
1.542	2	122.28	2.88	95.77	0.0024	4213	44.0	19.36	253.6
1.552	2	123.28	4.83	103.15	0.0001	4300	51.0	19.36	205.9
1.562	2	124.28	6.36	999.00	0.0000	10745	58.0	19.36	177.4
1.572	3	0.12	6.27	999.00	0.0000	10346	64.0	19.36	177.7
1.582	3	1.12	6.07	999.00	0.0000	5095	70.0	19.36	209.6
1.592	3	2.12	6.02	999.00	0.0000	4356	77.0	19.36	266.9
1.602	3	3.12	5.69	999.00	0.0000	4300	82.0	19.37	325.1
1.612	3	4.12	5.10	999.00	0.0000	4359	85.0	19.36	373.4
1.622	3	5.12	1.12	147.22	0.0000	4323	87.0	19.36	411.0
1.632	3	6.12	-0.20	155.64	0.0001	4353	87.0	19.36	442.5
1.642	3	7.12	-0.47	103.84	0.0002	4296	84.0	19.37	467.8
1.652	3	8.12	-0.52	104.23	0.0003	4264	78.0	19.38	492.7
1.662	3	9.12	-0.52	104.61	0.0002	4920	69.0	19.37	516.1
1.672	3	10.12	-0.52	94.82	0.0013	4985	57.0	19.37	540.3
1.682	3	11.12	-0.48	94.44	0.0067	5102	46.0	19.36	564.8
1.692	3	12.12	-0.48	95.23	0.0275	5124	36.0	19.36	588.5
1.702	3	13.12	-0.43	95.34	0.0243	5094	29.0	19.36	609.9
1.712	3	14.12	-0.43	95.32	0.0233	5099	24.0	19.37	625.1
1.722	3	15.12	-0.33	95.34	0.0240	5060	21.0	19.36	634.8
1.732	3	16.12	-0.28	95.52	0.0204	5029	21.0	19.36	643.1
1.742	3	17.12	-0.26	95.58	0.0149	5036	20.0	19.36	646.5
1.752	3	18.12	-0.21	95.56	0.0154	5092	21.0	19.36	646.6
1.762	3	19.12	-0.13	95.63	0.0131	5120	22.0	19.37	644.0
1.772	3	20.12	-0.08	95.57	0.0130	5070	24.0	19.36	638.8
1.782	3	21.12	-0.02	95.63	0.0125	4984	27.0	19.36	629.9
1.792	3	22.12	0.02	95.64	0.0138	5029	30.0	19.36	621.9
1.802	3	23.12	0.10	95.66	0.0141	4921	36.0	19.36	616.6
1.812	3	24.12	0.13	95.76	0.0107	4828	44.0	19.36	610.6
1.822	3	25.12	0.13	95.44	0.0107	4767	53.0	19.36	602.8
1.832	3	26.12	0.20	95.41	0.0115	4657	62.0	19.36	596.5
1.842	3	27.12	0.12	95.06	0.0114	4345	73.0	19.36	585.0
1.852	3	28.12	0.18	94.34	0.0123	4233	82.0	19.37	569.5
1.862	3	29.12	0.22	94.23	0.0096	4208	91.0	19.36	553.2
1.872	3	30.12	0.23	94.40	0.0090	4275	98.0	19.36	541.2
1.882	3	31.12	0.23	94.58	0.0090	4291	105.0	19.36	536.7
1.892	3	32.12	0.23	94.03	0.0071	4310	112.0	19.36	539.6
1.902	3	33.12	0.28	91.05	0.0050	4106	119.0	19.36	545.8
1.912	3	34.12	0.33	88.29	0.0022	3809	124.0	19.36	547.8
1.922	3	35.12	0.34	88.47	0.0019	4111	127.0	19.36	541.4
1.932	3	36.12	0.34	90.56	0.0066	4399	127.0	19.36	523.0
1.942	3	37.12	0.28	92.09	0.0105	4227	126.0	19.36	502.7
1.952	3	38.12	0.30	88.67	0.0022	3775	127.0	19.37	488.1
1.962	3	39.12	0.28	87.29	0.0032	3727	128.0	19.36	486.1
1.972	3	40.12	0.29	87.64	0.0074	3723	130.0	19.37	488.8
1.982	3	41.12	0.28	88.27	0.0085	3783	130.0	19.37	489.7
1.992	3	42.12	0.24	88.24	0.0068	3720	130.0	19.37	483.6
2.002	3	43.12	0.24	87.89	0.0063	3730	127.0	19.37	473.5
2.012	3	44.12	0.20	87.98	0.0039	4034	126.0	19.37	465.2
2.022	3	45.12	0.19	90.15	0.0021	4371	125.0	19.39	458.6
2.032	3	46.12	0.19	93.72	0.0041	4633	129.0	19.38	455.2
2.042	3	47.12	0.24	94.91	0.0111	4409	137.0	19.37	451.8
2.052	3	48.12	0.17	94.33	0.0049	3979	149.0	19.38	446.9
2.062	3	49.12	0.36	92.52	0.0015	3878	161.0	19.37	441.3
2.072	3	50.12	0.39	92.51	0.0044	3987	171.0	19.37	438.2
2.082	3	51.12	0.38	93.44	0.0057	3981	180.0	19.38	438.1
2.092	3	52.12	0.38	93.17	0.0040	3849	185.0	19.37	441.1
2.102	3	53.12	0.38	91.65	0.0018	3739	183.0	19.38	441.6
2.112	3	54.12	0.53	92.18	0.0013	4094	171.0	19.39	442.7
2.122	3	55.12	0.55	93.72	0.0033	4460	155.0	19.38	443.9
2.132	3	56.12	0.71	94.82	0.0135	4417	145.0	19.38	446.6
2.142	3	57.12	0.74	94.69	0.0076	4293	141.0	19.38	447.0
2.152	3	58.12	0.66	94.13	0.0074	4126	144.0	19.38	444.5
2.162	3	59.12	0.65	93.32	0.0075	4015	150.0	19.38	440.6
2.172	3	60.12	0.61	93.22	0.0292	4070	157.0	19.38	438.0
2.182	3	61.12	0.61	93.27	0.0204	3958	165.0	19.38	432.5
2.192	3	62.12	0.52	92.41	0.0190	3800	170.0	19.39	433.7
2.202	3	63.12	0.47	91.73	0.0119	3806	168.0	19.39	437.8
2.212	3	64.12	0.37	91.23	0.0074	3794	157.0	19.39	442.0
2.222	3	65.12	0.43	93.40	0.0087	4472	138.0	19.40	449.0
2.232	3	66.12	0.28	94.63	0.0486	4491	115.0	19.40	457.3
2.242	3	67.12	0.22	94.81	0.0290	4391	98.0	19.40	466.5
2.252	3	68.12	0.28	94.84	0.0193	4443	84.0	19.40	474.0
2.262	3	69.12	0.23	94.79	0.0174	4395	73.0	19.40	481.7
2.272	3	70.12	0.18	94.55	0.0182	4353	64.0	19.40	489.0
2.282	3	71.12	0.18	94.63	0.0154	4691	55.0	19.40	493.9
2.292	3	72.12	0.08	95.22	0.0318	4878	46.0	19.40	502.8
2.302	3	73.12	0.13	95.59	0.0173	4857	39.0	19.40	511.4
2.312	3	74.12	0.08	95.45	0.0201	4857	33.0	19.41	521.6
2.322	3	75.12	0.07	95.33	0.0280	4828	29.0	19.41	531.4
2.332	3	76.12	0.13	95.42	0.0190	4862	26.0	19.41	537.6
2.342	3	77.12	0.03	95.43	0.0171	4787	23.0	19.41	541.6
2.352	3	78.12	0.03	95.42	0.0180	4877	21.0	19.41	545.8
2.362	3	79.12	-0.12	95.29	0.0206	4945	19.0	19.41	549.5
2.372	3	80.12	-0.16	95.43	0.0277	4893	18.0	19.42	553.6
2.382	3	81.12	-0.14	95.38	0.0229	4965	17.0	19.42	558.0
2.392	3	82.12	-0.22	95.49	0.0259	4951	15.0	19.42	562.2
2.402	3	83.12	-0.32	95.38	0.0202	4944	15.0	19.43	567.5
2.412	3	84.12	-0.32	95.35	0.0171	4950	14.0	19.42	569.6
2.422	3	85.12	-0.42	95.28	0.0200	4907	14.0	19.42	572.9
2.432	3	86.12	-0.42	95.28	0.0267	4942	14.0	19.42	574.7
2.442	3	87.12	-0.48	95.18	0.0252	4936	14.0	19.43	576.4
2.452	3	88.12	-0.48	95.24	0.0259	4937	14.0	19.43	577.0
2.462	3	89.12	-0.47	95.27	0.0191	4946	14.0	19.42	577.9
2.472	3	90.12	-0.44	95.27	0.0193	4949	14.0	19.44	576.1
2.482	3	91.12	-0.44	95.02	0.0216	4934	15.0	19.43	574.6
2.492	3	92.12	-0.43	95.19	0.0343	4969	15.0	19.43	572.5
2.502	3	93.12	-0.42	95.23	0.0291	4904	17.0	19.44	567.0
2.512	3	94.12	-0.37	95.24	0.0210	4952	18.0	19.44	559.9
2.522	3	95.12	-0.40	95.11	0.0299	4816	21.0	19.46	553.3
2.532	3	96.12	-0.37	95.03	0.0257	4875	22.0	19.46	545.3
2.542	3	97.12	-0.38	94.94	0.0353	4778	25.0	19.47	536.9
2.552	3	98.12	-0.37	94.95	0.0262	4765	27.0	19.47	532.1
2.562	3	99.12	-0.33	94.88	0.0349	4709	31.0	19.47	522.3
2.572	3	100.12	-0.23	95.00	0.0199	4657	34.0	19.47	513.8
2.582	3	101.12	-0.18	94.87	0.0174	4612	39.0	19.47	501.4
2.592	3	102.12	-0.08	94.83	0.0200	4618	43.0	19.48	489.9
2.602	3	103.12	-0.02	94.83	0.0179	4573	49.0	19.58	479.2
2.612	3	104.12	0.03	94.85	0.0145	4556	56.0	19.50	468.7
2.622	3	105.12	0.08	94.64	0.0135	4458	63.0	19.56	461.1
2.632	3	106.12	0.13	94.43	0.0166	4350	71.0	19.77	452.5
2.642	3	107.12	0.12	94.14	0.0103	4294	79.0	20.02	446.6
2.652	3	108.12	0.18	93.78	0.0157	4199	85.0	20.20	441.4
2.662	3	109.12	0.18	93.89	0.0120	4268	88.0	20.34	439.4
2.672	3	110.12	0.21	94.31	0.0136	4267	90.0	20.47	440.4
2.682	3	111.12	0.28	94.27	0.0178	4328	90.0	20.69	442.8
2.692	3	112.12	0.38	94.51	0.0155	4328	91.0	20.78	443.1
2.702	3	113.12	0.37	94.23	0.0113	4285	92.0	20.72	442.1
2.712	3	114.12	0.53	94.20	0.0129	4337	94.0	20.62	430.0
2.722	3	115.12	0.53	94.27	0.0151	4309	97.0	20.50	424.9
2.732	3	116.12	0.61	94.24	0.0111	4214	101.0	20.39	420.5
2.742	3	117.12	0.71	93.67	0.0056	3935	105.0	20.29	422.0
2.752	3	118.12	0.71	92.96	0.0028	4201	108.0	20.16	424.0
2.762	3	119.12	0.81	93.85	0.0155	4295	110.0	20.05	425.9
2.772	3	120.12	0.85	94.10	0.0142	4226	113.0	19.95	428.3
2.782	3	121.12	0.95	93.67	0.0057	4099	113.0	19.82	427.3
2.792	3	122.12	1.01	93.32	0.0064	4422	111.0	19.69	421.9
2.802	3	123.12	1.36	94.49	0.0235	4453	109.0	19.55	415.5
2.812	3	124.12	1.57	94.17	0.0071	4332	111.0	19.45	409.8
2.822	3	125.12	2.13	93.48	0.0037	4066	115.0	19.34	402.3
2.832	3	126.12	3.13	93.49	0.0002	4400	120.0	19.20	389.5
2.842	3	127.12	3.32	999.00	0.0000	4440	126.0	19.08	372.5
2.852	3	128.12	3.28	999.00	0.0000	4114	134.0	18.98	350.1
2.862	3	129.12	3.41	92.53	0.0002	3798	141.0	18.91	323.5
2.872	3	130.12	3.51	999.00	0.0000	3692	145.0	18.87	289.4
2.882	3	131.12	3.10	93.16	0.0001	3771	144.0	18.85	240.1
2.892	3	132.12	2.87	999.00	0.0000	3689	135.0	18.75	175.0
2.902	3	133.12	3.17	999.00	0.0000	5067	116.0	18.66	117.4
2.912	3	134.12	2.82	999.00	0.0000	11718	89.0	18.66	83.0
