Geotek MSCL 7.9 - TN336_JPC12-12.raw created at 4:23:56 on 1/21/2016.


Core Depth	Section	Sect Depth	CTD 	Tr. Time 	PW Amp   	A Gamma  	Mag Sus  	Temp     	NC Res   
m		cm	mm	µsec		cps	SI x 10^-5	°C	mV

-0.640	before cal	-0.04	1.71	999.00	0.0000	13739	-1.0	18.27	15.7
-0.580	cal	5.96	0.61	96.98	0.0235	6632	-2.0	18.26	39.2
-0.520	cal	11.96	-2.16	95.54	0.0199	6808	-1.0	18.27	40.0
-0.460	cal	17.96	-1.45	96.06	0.0172	6684	-1.0	18.28	42.8
-0.400	cal	23.96	0.92	97.48	0.0060	6617	-1.0	18.31	48.7
-0.340	cal	29.96	2.35	97.73	0.0126	6510	-1.0	18.31	102.3
-0.280	cal	35.96	1.50	96.57	0.0015	6651	-1.0	18.32	586.8
-0.220	cal	41.96	-1.50	94.44	0.0082	6711	-1.0	18.32	788.5
-0.160	cal	47.96	-2.35	94.43	0.0901	6663	-1.0	18.25	796.0
-0.100	cal	53.96	-1.33	94.88	0.0186	6616	-1.0	18.23	794.9
-0.040	cal	59.96	0.09	95.80	0.0194	6491	0.0	18.24	592.0
0.000	cal	63.96	4.13	999.00	0.0000	12813	5.0	18.25	191.9
0.010	1	1.00	4.62	999.00	0.0000	12925	8.0	18.25	206.8
0.020	1	2.00	4.67	999.00	0.0000	7152	11.0	18.26	242.2
0.030	1	3.00	4.52	999.00	0.0000	4982	13.0	18.26	284.6
0.040	1	4.00	3.99	999.00	0.0000	4845	14.0	18.26	335.1
0.050	1	5.00	-0.50	96.79	0.0005	4842	15.0	18.27	388.3
0.060	1	6.00	-1.49	95.27	0.0056	4892	15.0	18.26	433.7
0.070	1	7.00	-2.03	95.31	0.0044	4776	16.0	18.27	465.1
0.080	1	8.00	-2.16	94.43	0.0032	4392	15.0	18.27	480.6
0.090	1	9.00	-2.21	94.40	0.0088	4452	14.0	18.27	488.0
0.100	1	10.00	-2.24	94.50	0.0147	4380	13.0	18.28	488.1
0.110	1	11.00	-2.19	94.43	0.0140	4443	12.0	18.27	489.0
0.120	1	12.00	-2.30	94.59	0.0247	4395	13.0	18.28	488.4
0.130	1	13.00	-2.30	94.53	0.0148	4345	12.0	18.28	492.3
0.140	1	14.00	-2.25	94.29	0.0161	4337	12.0	18.28	495.9
0.150	1	15.00	-2.24	94.21	0.0260	4294	11.0	18.28	498.4
0.160	1	16.00	-2.15	94.50	0.0293	4421	11.0	18.29	507.0
0.170	1	17.00	-2.15	94.62	0.0227	4415	11.0	18.28	510.0
0.180	1	18.00	-2.14	94.78	0.0195	4387	11.0	18.29	509.4
0.190	1	19.00	-2.10	94.77	0.0188	4479	11.0	18.29	510.8
0.200	1	20.00	-2.10	94.85	0.0255	4693	11.0	18.30	514.2
0.210	1	21.00	-2.10	94.94	0.0327	4560	11.0	18.30	517.9
0.220	1	22.00	-2.05	94.75	0.0251	4474	10.0	18.30	523.7
0.230	1	23.00	-2.00	94.67	0.0237	4480	10.0	18.30	524.9
0.240	1	24.00	-1.99	94.82	0.0299	4498	11.0	18.30	521.7
0.250	1	25.00	-1.89	94.92	0.0282	4523	10.0	18.31	515.3
0.260	1	26.00	-1.95	94.85	0.0237	4487	11.0	18.30	509.2
0.270	1	27.00	-1.90	94.63	0.0444	4468	11.0	18.31	500.9
0.280	1	28.00	-1.81	94.64	0.0306	4387	11.0	18.31	496.2
0.290	1	29.00	-1.78	94.48	0.0202	4308	11.0	18.32	492.5
0.300	1	30.00	-1.80	94.54	0.0128	4221	10.0	18.32	490.8
0.310	1	31.00	-1.75	94.50	0.0111	4346	10.0	18.32	482.0
0.320	1	32.00	-1.72	94.53	0.0124	4270	10.0	18.32	478.1
0.330	1	33.00	-1.69	94.32	0.0100	4223	10.0	18.32	473.8
0.340	1	34.00	-1.73	93.81	0.0073	4212	11.0	18.32	469.7
0.350	1	35.00	-1.68	93.90	0.0122	4304	11.0	18.33	468.6
0.360	1	36.00	-1.69	94.53	0.0163	4451	11.0	18.32	467.3
0.370	1	37.00	-1.65	95.07	0.0143	4480	11.0	18.33	468.9
0.380	1	38.00	-1.64	95.27	0.0160	4466	11.0	18.34	466.8
0.390	1	39.00	-1.69	95.27	0.0159	4497	11.0	18.33	467.0
0.400	1	40.00	-1.64	95.22	0.0199	4491	11.0	18.34	465.1
0.410	1	41.00	-1.66	95.23	0.0155	4436	11.0	18.34	465.0
0.420	1	42.00	-1.69	94.99	0.0130	4392	11.0	18.34	461.3
0.430	1	43.00	-1.64	95.04	0.0135	4409	11.0	18.34	462.1
0.440	1	44.00	-1.64	95.23	0.0141	4475	10.0	18.35	462.1
0.450	1	45.00	-1.64	95.05	0.0111	4472	11.0	18.35	462.4
0.460	1	46.00	-1.69	95.23	0.0170	4456	11.0	18.35	463.8
0.470	1	47.00	-1.69	95.26	0.0139	4470	10.0	18.35	465.6
0.480	1	48.00	-1.72	95.48	0.0114	4547	10.0	18.36	468.4
0.490	1	49.00	-1.54	95.63	0.0102	4546	10.0	18.35	471.9
0.500	1	50.00	-1.39	95.55	0.0122	4546	10.0	18.36	471.7
0.510	1	51.00	-1.41	95.59	0.0115	4566	10.0	18.36	472.5
0.520	1	52.00	-1.44	95.59	0.0101	4536	10.0	18.36	475.3
0.530	1	53.00	-1.46	95.44	0.0159	4579	10.0	18.38	474.6
0.540	1	54.00	-1.47	95.45	0.0167	4536	11.0	18.39	473.4
0.550	1	55.00	-1.50	95.31	0.0154	4560	10.0	18.39	472.0
0.560	1	56.00	-1.46	95.29	0.0169	4545	10.0	18.40	469.5
0.570	1	57.00	-1.46	95.21	0.0135	4471	10.0	18.39	467.0
0.580	1	58.00	-1.47	95.06	0.0136	4551	10.0	18.40	466.2
0.590	1	59.00	-1.47	94.78	0.0232	4495	11.0	18.40	464.8
0.600	1	60.00	-1.47	94.93	0.0247	4506	10.0	18.40	464.6
0.610	1	61.00	-1.47	95.01	0.0157	4519	11.0	18.40	466.4
0.620	1	62.00	-1.47	95.21	0.0137	4485	10.0	18.41	465.1
0.630	1	63.00	-1.46	95.21	0.0171	4485	11.0	18.41	463.1
0.640	1	64.00	-1.48	95.19	0.0170	4497	11.0	18.41	461.9
0.650	1	65.00	-1.51	95.10	0.0139	4497	11.0	18.40	466.3
0.660	1	66.00	-1.46	95.24	0.0162	4534	10.0	18.41	465.8
0.670	1	67.00	-1.50	95.36	0.0137	4577	11.0	18.41	465.6
0.680	1	68.00	-1.42	95.34	0.0130	4513	11.0	18.42	465.1
0.690	1	69.00	-1.40	95.24	0.0096	4561	10.0	18.42	463.1
0.700	1	70.00	-1.34	95.19	0.0153	4491	10.0	18.41	457.4
0.710	1	71.00	-1.29	95.32	0.0153	4504	10.0	18.42	449.3
0.720	1	72.00	-1.30	95.30	0.0146	4470	10.0	18.42	441.7
0.730	1	73.00	-1.24	95.38	0.0094	4494	10.0	18.43	418.2
0.740	1	74.00	-1.14	95.26	0.0086	4464	10.0	18.42	417.5
0.750	1	75.00	-1.09	95.37	0.0106	4468	11.0	18.43	416.2
0.760	1	76.00	-0.93	95.35	0.0141	4500	11.0	18.43	416.9
0.770	1	77.00	-0.83	95.39	0.0099	4499	10.0	18.43	415.5
0.780	1	78.00	-0.82	95.47	0.0100	4458	10.0	18.43	417.7
0.790	1	79.00	-0.69	95.46	0.0087	4422	11.0	18.43	420.6
0.800	1	80.00	-0.32	95.53	0.0094	4445	11.0	18.43	422.1
0.810	1	81.00	-0.12	95.74	0.0082	4443	11.0	18.44	428.2
0.820	1	82.00	0.04	95.64	0.0034	4382	11.0	18.44	431.2
0.830	1	83.00	0.30	96.02	0.0041	4362	11.0	18.44	433.2
0.840	1	84.00	3.54	96.85	0.0003	4321	11.0	18.45	435.3
0.850	1	85.00	3.09	97.37	0.0003	4272	11.0	18.45	437.6
0.860	1	86.00	2.76	999.00	0.0000	4257	10.0	18.45	441.2
0.870	1	87.00	2.05	96.82	0.0015	4366	10.0	18.45	438.0
0.880	1	88.00	1.54	96.01	0.0025	4404	11.0	18.44	422.1
0.890	1	89.00	0.76	96.16	0.0147	4468	11.0	18.45	379.9
0.900	1	90.00	0.46	96.52	0.0154	4466	11.0	18.45	304.4
0.910	1	91.00	2.19	96.57	0.0056	4351	11.0	18.46	224.1
0.920	1	92.00	3.93	999.00	0.0000	4466	11.0	18.46	185.1
0.930	2	0.02	4.60	999.00	0.0000	6331	11.0	18.46	192.4
0.940	2	1.02	4.69	999.00	0.0000	4235	10.0	18.47	235.0
0.950	2	2.02	5.06	106.49	0.0001	4344	10.0	18.47	288.2
0.960	2	3.02	5.04	999.00	0.0000	4431	10.0	18.48	337.4
0.970	2	4.02	4.47	98.30	0.0001	4584	10.0	18.47	379.9
0.980	2	5.02	0.56	101.43	0.0015	4643	9.0	18.47	408.7
0.990	2	6.02	-0.70	106.85	0.0033	4538	9.0	18.47	425.2
1.000	2	7.02	-1.32	104.94	0.0019	4744	10.0	18.48	432.9
1.010	2	8.02	-1.70	105.88	0.0013	4803	9.0	18.48	436.7
1.020	2	9.02	-1.83	105.68	0.0007	4690	9.0	18.47	436.6
1.030	2	10.02	-1.90	105.30	0.0012	4598	10.0	18.47	434.5
1.040	2	11.02	-2.00	105.61	0.0009	4620	10.0	18.48	430.7
1.050	2	12.02	-2.00	106.36	0.0011	4586	10.0	18.49	428.6
1.060	2	13.02	-2.12	104.43	0.0007	4469	10.0	18.49	427.7
1.070	2	14.02	-2.17	104.51	0.0018	4348	10.0	18.50	422.5
1.080	2	15.02	-2.21	104.51	0.0030	4370	11.0	18.49	421.6
1.090	2	16.02	-2.19	105.00	0.0021	4379	10.0	18.49	418.5
1.100	2	17.02	-2.18	104.61	0.0018	4352	11.0	18.50	417.9
1.110	2	18.02	-2.17	104.54	0.0020	4366	11.0	18.49	417.7
1.120	2	19.02	-2.13	104.74	0.0018	4290	10.0	18.50	419.5
1.130	2	20.02	-2.02	104.52	0.0045	4272	10.0	18.49	422.3
1.140	2	21.02	-1.93	104.76	0.0028	4265	10.0	18.49	427.7
1.150	2	22.02	-1.89	105.35	0.0010	4276	11.0	18.50	432.3
1.160	2	23.02	-1.82	105.31	0.0017	4240	10.0	18.49	437.4
1.170	2	24.02	-1.83	104.87	0.0018	4217	10.0	18.51	437.6
1.180	2	25.02	-1.78	105.53	0.0015	4191	10.0	18.52	440.5
1.190	2	26.02	-1.62	98.38	0.0014	4261	11.0	18.51	439.1
1.200	2	27.02	-1.61	98.50	0.0038	4344	10.0	18.50	441.8
1.210	2	28.02	-1.56	105.46	0.0019	4336	11.0	18.51	441.0
1.220	2	29.02	-1.62	104.99	0.0018	4394	10.0	18.51	441.5
1.230	2	30.02	-1.57	104.78	0.0070	4400	10.0	18.52	444.9
1.240	2	31.02	-1.51	105.80	0.0034	4424	10.0	18.51	441.6
1.250	2	32.02	-1.50	100.35	0.0019	4357	10.0	18.52	441.9
1.260	2	33.02	-1.46	95.16	0.0056	4342	10.0	18.52	438.9
1.270	2	34.02	-1.51	105.59	0.0032	4382	10.0	18.52	437.8
1.280	2	35.02	-1.48	104.86	0.0047	4396	11.0	18.52	433.8
1.290	2	36.02	-1.43	104.64	0.0049	4344	10.0	18.53	434.8
1.300	2	37.02	-1.52	104.07	0.0035	4346	10.0	18.52	426.6
1.310	2	38.02	-1.57	104.51	0.0053	4448	10.0	18.52	420.1
1.320	2	39.02	-1.55	104.90	0.0052	4367	11.0	18.53	414.9
1.330	2	40.02	-1.57	104.87	0.0034	4428	10.0	18.53	410.1
1.340	2	41.02	-1.57	104.18	0.0019	4473	10.0	18.53	408.5
1.350	2	42.02	-1.58	104.47	0.0023	4333	10.0	18.53	409.4
1.360	2	43.02	-1.57	106.04	0.0007	4255	10.0	18.54	413.8
1.370	2	44.02	-1.61	105.61	0.0011	4330	10.0	18.54	417.9
1.380	2	45.02	-1.62	104.46	0.0020	4324	9.0	18.54	418.7
1.390	2	46.02	-1.61	104.50	0.0043	4507	9.0	18.54	419.1
1.400	2	47.02	-1.60	105.36	0.0026	4622	10.0	18.54	421.5
1.410	2	48.02	-1.56	104.98	0.0020	4640	9.0	18.54	425.4
1.420	2	49.02	-1.50	104.90	0.0018	4659	9.0	18.55	429.5
1.430	2	50.02	-1.51	98.56	0.0014	4670	10.0	18.55	431.6
1.440	2	51.02	-1.46	99.60	0.0019	4729	9.0	18.55	435.4
1.450	2	52.02	-1.41	105.50	0.0018	4663	10.0	18.55	435.5
1.460	2	53.02	-1.35	105.32	0.0019	4588	10.0	18.55	433.7
1.470	2	54.02	-1.27	105.56	0.0041	4562	9.0	18.57	432.7
1.480	2	55.02	-1.39	99.44	0.0032	4544	10.0	18.57	430.5
1.490	2	56.02	-1.27	94.42	0.0100	4497	10.0	18.56	429.3
1.500	2	57.02	-1.17	94.58	0.0136	4476	11.0	18.58	429.3
1.510	2	58.02	-1.17	94.85	0.0170	4506	11.0	18.57	428.2
1.520	2	59.02	-1.13	94.82	0.0214	4391	10.0	18.58	427.5
1.530	2	60.02	-1.13	94.89	0.0137	4397	11.0	18.58	423.6
1.540	2	61.02	-1.19	94.59	0.0099	4384	11.0	18.58	420.3
1.550	2	62.02	-1.19	94.53	0.0224	4392	11.0	18.58	415.7
1.560	2	63.02	-1.21	94.52	0.0211	4303	10.0	18.58	414.8
1.570	2	64.02	-1.24	94.61	0.0308	4375	11.0	18.59	412.3
1.580	2	65.02	-1.29	94.81	0.0207	4368	11.0	18.59	409.7
1.590	2	66.02	-1.33	94.56	0.0155	4354	10.0	18.58	408.7
1.600	2	67.02	-1.39	94.47	0.0174	4394	10.0	18.59	401.1
1.610	2	68.02	-1.44	94.50	0.0171	4400	10.0	18.59	400.9
1.620	2	69.02	-1.50	94.61	0.0103	4368	11.0	18.59	400.3
1.630	2	70.02	-1.54	94.37	0.0089	4342	10.0	18.59	399.8
1.640	2	71.02	-1.56	94.22	0.0139	4329	10.0	18.59	402.8
1.650	2	72.02	-1.62	94.43	0.0062	4359	10.0	18.59	407.4
1.660	2	73.02	-1.55	94.16	0.0053	4417	10.0	18.59	412.3
1.670	2	74.02	-1.61	94.12	0.0118	4486	10.0	18.59	423.2
1.680	2	75.02	-1.61	94.76	0.0097	4546	9.0	18.59	432.3
1.690	2	76.02	-1.69	104.95	0.0071	4603	9.0	18.59	439.6
1.700	2	77.02	-1.76	94.65	0.0097	4590	9.0	18.59	444.5
1.710	2	78.02	-1.86	94.82	0.0098	4613	9.0	18.60	452.0
1.720	2	79.02	-1.85	94.80	0.0167	4603	8.0	18.60	454.7
1.730	2	80.02	-1.86	94.38	0.0136	4432	9.0	18.60	454.0
1.740	2	81.02	-1.94	94.50	0.0108	4613	8.0	18.61	451.4
1.750	2	82.02	-1.99	94.86	0.0108	4703	8.0	18.60	446.6
1.760	2	83.02	-2.05	94.81	0.0081	4690	8.0	18.61	444.8
1.770	2	84.02	-2.04	100.37	0.0066	4757	8.0	18.61	445.1
1.780	2	85.02	-1.94	105.11	0.0051	4742	9.0	18.61	446.1
1.790	2	86.02	-1.98	99.90	0.0095	4750	9.0	18.62	440.5
1.800	2	87.02	-1.95	94.39	0.0097	4729	9.0	18.61	439.4
1.810	2	88.02	-2.02	100.35	0.0063	4681	9.0	18.61	436.3
1.820	2	89.02	-2.08	94.45	0.0084	4753	9.0	18.62	438.6
1.830	2	90.02	-2.09	94.45	0.0201	4487	9.0	18.62	437.5
1.840	2	91.02	-2.13	94.45	0.0132	4319	10.0	18.62	439.4
1.850	2	92.02	-2.13	94.04	0.0129	4309	10.0	18.62	439.3
1.860	2	93.02	-2.13	94.07	0.0313	4401	10.0	18.63	439.9
1.870	2	94.02	-2.13	94.38	0.0141	4385	10.0	18.63	438.4
1.880	2	95.02	-2.13	94.01	0.0104	4393	10.0	18.62	436.4
1.890	2	96.02	-2.08	94.29	0.0326	4362	10.0	18.62	431.2
1.900	2	97.02	-2.08	94.71	0.0167	4391	10.0	18.63	428.8
1.910	2	98.02	-2.03	94.51	0.0128	4400	10.0	18.63	427.5
1.920	2	99.02	-1.98	94.45	0.0214	4377	10.0	18.63	426.0
1.930	2	100.02	-1.97	94.41	0.0215	4298	11.0	18.62	425.7
1.940	2	101.02	-1.93	94.41	0.0229	4212	10.0	18.62	424.9
1.950	2	102.02	-1.98	94.02	0.0170	4189	10.0	18.63	422.9
1.960	2	103.02	-1.89	93.69	0.0245	4039	10.0	18.63	419.6
1.970	2	104.02	-1.88	94.03	0.0105	4291	10.0	18.63	418.0
1.980	2	105.02	-1.82	94.50	0.0216	4293	10.0	18.63	415.3
1.990	2	106.02	-1.87	93.79	0.0081	4062	10.0	18.64	416.2
2.000	2	107.02	-1.82	93.66	0.0234	4278	10.0	18.64	418.8
2.010	2	108.02	-1.82	94.15	0.0350	4209	10.0	18.64	421.5
2.020	2	109.02	-1.78	93.77	0.0316	4190	10.0	18.64	425.0
2.030	2	110.02	-1.83	94.05	0.0381	4295	10.0	18.63	427.4
2.040	2	111.02	-1.88	93.86	0.0409	4278	10.0	18.66	426.8
2.050	2	112.02	-1.88	94.02	0.0247	4312	10.0	18.66	429.0
2.060	2	113.02	-1.88	93.85	0.0169	4281	10.0	18.66	427.5
2.070	2	114.02	-1.93	93.85	0.0168	4299	11.0	18.66	425.2
2.080	2	115.02	-1.93	93.74	0.0245	4285	10.0	18.66	427.1
2.090	2	116.02	-1.89	94.23	0.0300	4319	10.0	18.66	423.7
2.100	2	117.02	-1.88	94.14	0.0167	4314	10.0	18.67	422.2
2.110	2	118.02	-1.89	93.80	0.0333	4167	10.0	18.68	420.5
2.120	2	119.02	-1.90	93.75	0.0304	4145	10.0	18.68	415.0
2.130	2	120.02	-1.90	93.89	0.0303	4192	10.0	18.67	411.7
2.140	2	121.02	-1.90	93.99	0.0259	4189	10.0	18.68	413.7
2.150	2	122.02	-1.91	94.05	0.0216	4265	10.0	18.68	416.8
2.160	2	123.02	-1.91	94.17	0.0279	4200	10.0	18.68	421.9
2.170	2	124.02	-1.83	94.10	0.0261	4329	10.0	18.68	422.5
2.180	2	125.02	-1.78	94.42	0.0204	4316	10.0	18.68	427.5
2.190	2	126.02	-1.73	94.56	0.0159	4425	10.0	18.68	430.3
2.200	2	127.02	-1.61	94.53	0.0178	4363	10.0	18.69	426.5
2.210	2	128.02	-1.51	94.55	0.0145	4320	10.0	18.68	419.3
2.220	2	129.02	-1.42	94.62	0.0263	4354	10.0	18.69	416.7
2.230	2	130.02	-1.41	94.74	0.0192	4431	10.0	18.69	414.5
2.240	2	131.02	-1.32	94.69	0.0411	4337	9.0	18.69	401.1
2.250	2	132.02	-1.33	94.63	0.0297	4298	10.0	18.69	398.7
2.260	2	133.02	-1.29	94.44	0.0416	4358	10.0	18.69	394.6
2.270	2	134.02	-1.28	94.56	0.0244	4307	10.0	18.69	390.8
2.280	2	135.02	-1.12	94.56	0.0147	4397	10.0	18.69	388.0
2.290	2	136.02	-1.18	94.64	0.0080	4342	10.0	18.70	383.8
2.300	2	137.02	-1.10	94.70	0.0080	4356	10.0	18.69	384.6
2.310	2	138.02	-0.56	95.14	0.0054	4337	10.0	18.70	380.0
2.320	2	139.02	-0.58	100.34	0.0046	4386	10.0	18.70	377.3
2.330	2	140.02	-0.18	100.06	0.0020	4349	10.0	18.70	374.2
2.340	2	141.02	0.27	100.72	0.0011	4307	10.0	18.71	367.6
2.350	2	142.02	2.11	999.00	0.0000	4330	10.0	18.70	363.3
2.360	2	143.02	2.28	107.58	0.0004	4296	10.0	18.70	358.4
2.370	2	144.02	1.79	999.00	0.0000	4354	10.0	18.72	348.3
2.380	2	145.02	1.35	999.00	0.0000	4331	9.0	18.71	335.7
2.390	2	146.02	0.95	999.00	0.0000	4360	10.0	18.71	315.8
2.400	2	147.02	0.71	999.00	0.0000	4450	10.0	18.72	284.8
2.410	2	148.02	1.05	153.59	0.0001	4426	9.0	18.73	250.2
2.420	2	149.02	2.32	129.13	0.0001	4350	10.0	18.72	213.8
2.430	2	150.02	4.33	999.00	0.0000	4550	9.0	18.73	188.8
2.440	3	0.12	4.49	999.00	0.0000	7803	9.0	18.72	184.7
2.450	3	1.12	4.83	999.00	0.0000	4328	9.0	18.72	202.8
2.460	3	2.12	4.93	999.00	0.0000	4300	9.0	18.73	241.7
2.470	3	3.12	4.49	999.00	0.0000	4595	9.0	18.73	287.8
2.480	3	4.12	3.92	999.00	0.0000	4436	9.0	18.73	328.7
2.490	3	5.12	-0.06	140.52	0.0001	4402	10.0	18.73	357.9
2.500	3	6.12	-1.09	118.39	0.0002	4476	10.0	18.73	376.8
2.510	3	7.12	-1.78	125.76	0.0001	4437	10.0	18.73	389.6
2.520	3	8.12	-1.87	108.76	0.0002	4333	10.0	18.73	397.8
2.530	3	9.12	-1.99	104.79	0.0005	4322	10.0	18.74	402.9
2.540	3	10.12	-2.03	93.60	0.0020	4252	11.0	18.74	406.6
2.550	3	11.12	-2.01	93.51	0.0130	4285	10.0	18.73	408.9
2.560	3	12.12	-2.10	94.06	0.0193	4280	11.0	18.74	407.8
2.570	3	13.12	-2.12	94.23	0.0173	4303	10.0	18.74	407.4
2.580	3	14.12	-2.12	94.12	0.0150	4278	10.0	18.74	406.3
2.590	3	15.12	-2.15	94.11	0.0125	4238	11.0	18.74	405.2
2.600	3	16.12	-2.17	94.04	0.0105	4181	10.0	18.74	404.6
2.610	3	17.12	-2.13	93.62	0.0112	4159	10.0	18.74	401.4
2.620	3	18.12	-2.12	93.67	0.0120	4208	10.0	18.74	400.7
2.630	3	19.12	-2.03	93.70	0.0129	4140	11.0	18.74	400.7
2.640	3	20.12	-2.02	93.54	0.0107	4133	10.0	18.75	400.0
2.650	3	21.12	-2.03	93.63	0.0108	4112	11.0	18.75	401.5
2.660	3	22.12	-1.92	93.44	0.0140	4075	10.0	18.75	400.8
2.670	3	23.12	-1.91	93.13	0.0113	3866	10.0	18.75	401.6
2.680	3	24.12	-1.92	93.08	0.0046	4059	10.0	18.76	400.2
2.690	3	25.12	-1.85	93.49	0.0118	3985	10.0	18.75	399.1
2.700	3	26.12	-1.87	93.41	0.0074	4080	11.0	18.76	401.6
2.710	3	27.12	-1.76	93.47	0.0191	4021	11.0	18.75	404.2
2.720	3	28.12	-1.71	93.57	0.0145	4013	11.0	18.76	403.8
2.730	3	29.12	-1.76	93.44	0.0208	4023	11.0	18.75	402.8
2.740	3	30.12	-1.76	93.65	0.0252	4095	11.0	18.76	403.3
2.750	3	31.12	-1.71	93.62	0.0203	4087	11.0	18.76	396.5
2.760	3	32.12	-1.76	93.58	0.0322	4093	11.0	18.76	393.9
2.770	3	33.12	-1.76	93.67	0.0326	4114	11.0	18.76	391.5
2.780	3	34.12	-1.77	93.59	0.0245	4114	12.0	18.76	388.2
2.790	3	35.12	-1.76	93.69	0.0223	4099	11.0	18.76	389.3
2.800	3	36.12	-1.71	93.91	0.0128	4129	11.0	18.77	389.0
2.810	3	37.12	-1.69	93.72	0.0085	4084	12.0	18.76	388.3
2.820	3	38.12	-1.69	93.72	0.0071	4106	12.0	18.77	383.1
2.830	3	39.12	-1.69	93.81	0.0116	4116	11.0	18.77	379.9
2.840	3	40.12	-1.66	93.66	0.0141	4135	12.0	18.78	375.0
2.850	3	41.12	-1.66	93.59	0.0201	4079	11.0	18.78	369.9
2.860	3	42.12	-1.72	93.68	0.0179	4129	11.0	18.78	365.4
2.870	3	43.12	-1.67	93.82	0.0147	4116	11.0	18.78	366.7
2.880	3	44.12	-1.66	93.73	0.0146	4125	11.0	18.78	362.3
2.890	3	45.12	-1.65	93.70	0.0166	4119	11.0	18.78	360.8
2.900	3	46.12	-1.60	93.66	0.0173	4066	11.0	18.79	359.1
2.910	3	47.12	-1.60	93.57	0.0168	4055	11.0	18.79	358.1
2.920	3	48.12	-1.60	93.34	0.0223	4015	11.0	18.79	355.1
2.930	3	49.12	-1.66	93.39	0.0209	4085	11.0	18.79	354.3
2.940	3	50.12	-1.66	93.59	0.0228	4087	11.0	18.79	355.1
2.950	3	51.12	-1.66	93.54	0.0237	4024	10.0	18.79	354.6
2.960	3	52.12	-1.66	93.35	0.0177	4032	11.0	18.80	353.0
2.970	3	53.12	-1.64	93.35	0.0203	4006	11.0	18.80	353.8
2.980	3	54.12	-1.65	93.38	0.0179	4018	10.0	18.79	353.5
2.990	3	55.12	-1.76	93.33	0.0199	4007	11.0	18.79	352.8
3.000	3	56.12	-1.71	93.36	0.0202	4063	11.0	18.80	354.2
3.010	3	57.12	-1.72	93.36	0.0270	4057	11.0	18.80	355.8
3.020	3	58.12	-1.84	93.47	0.0233	4072	11.0	18.80	358.8
3.030	3	59.12	-1.80	93.62	0.0185	4067	11.0	18.80	361.6
3.040	3	60.12	-1.85	93.54	0.0130	4098	11.0	18.81	358.9
3.050	3	61.12	-1.86	93.73	0.0135	4204	11.0	18.82	358.4
3.060	3	62.12	-1.91	93.83	0.0151	4232	11.0	18.81	358.1
3.070	3	63.12	-1.95	94.05	0.0120	4188	11.0	18.81	356.0
3.080	3	64.12	-2.01	93.70	0.0142	4159	11.0	18.82	356.0
3.090	3	65.12	-2.11	93.38	0.0196	4116	11.0	18.83	357.2
3.100	3	66.12	-2.16	93.32	0.0201	4040	11.0	18.82	356.5
3.110	3	67.12	-2.21	92.99	0.0171	3998	11.0	18.83	358.1
3.120	3	68.12	-2.24	92.86	0.0177	4014	11.0	18.82	358.3
3.130	3	69.12	-2.26	92.88	0.0221	4011	11.0	18.83	356.4
3.140	3	70.12	-2.24	92.90	0.0242	3988	11.0	18.83	358.1
3.150	3	71.12	-2.24	92.85	0.0204	3974	11.0	18.83	357.4
3.160	3	72.12	-2.24	92.91	0.0209	3989	11.0	18.83	357.2
3.170	3	73.12	-2.09	93.02	0.0222	3992	11.0	18.83	359.4
3.180	3	74.12	-2.08	93.03	0.0190	3946	11.0	18.83	359.5
3.190	3	75.12	-2.11	92.65	0.0125	3884	11.0	18.83	358.3
3.200	3	76.12	-2.07	92.66	0.0129	3961	11.0	18.83	358.2
3.210	3	77.12	-2.06	92.54	0.0277	3958	11.0	18.84	358.0
3.220	3	78.12	-2.01	92.58	0.0282	3868	10.0	18.84	355.4
3.230	3	79.12	-1.96	92.28	0.0267	3902	11.0	18.84	356.4
3.240	3	80.12	-1.99	92.23	0.0372	3908	11.0	18.84	357.2
3.250	3	81.12	-1.90	92.49	0.0329	3872	11.0	18.85	357.4
3.260	3	82.12	-1.85	92.65	0.0269	4010	11.0	18.84	356.8
3.270	3	83.12	-1.82	92.83	0.0233	3980	11.0	18.84	360.3
3.280	3	84.12	-1.82	92.40	0.0172	3851	11.0	18.85	359.9
3.290	3	85.12	-1.82	92.24	0.0180	3902	11.0	18.85	359.6
3.300	3	86.12	-1.76	92.47	0.0245	3854	11.0	18.84	358.1
3.310	3	87.12	-1.70	92.46	0.0162	3849	11.0	18.85	356.1
3.320	3	88.12	-1.71	92.36	0.0135	3965	11.0	18.85	353.2
3.330	3	89.12	-1.59	92.81	0.0267	4005	11.0	18.86	352.4
3.340	3	90.12	-1.48	93.02	0.0217	3919	10.0	18.85	350.9
3.350	3	91.12	-1.34	92.85	0.0186	3875	11.0	18.85	350.1
3.360	3	92.12	-1.20	92.63	0.0165	3920	10.0	18.86	352.2
3.370	3	93.12	-1.17	92.83	0.0308	3967	11.0	18.86	356.9
3.380	3	94.12	-1.21	93.23	0.0220	3993	10.0	18.86	358.8
3.390	3	95.12	-1.21	93.28	0.0237	3925	11.0	18.86	363.3
3.400	3	96.12	-1.12	93.23	0.0225	3912	10.0	18.86	366.9
3.410	3	97.12	-1.25	93.07	0.0262	4027	11.0	18.87	366.6
3.420	3	98.12	-1.28	93.25	0.0197	4015	11.0	18.87	369.1
3.430	3	99.12	-1.32	93.26	0.0251	3959	11.0	18.87	369.0
3.440	3	100.12	-1.43	93.01	0.0182	4064	11.0	18.86	370.7
3.450	3	101.12	-1.71	92.87	0.0154	3952	10.0	18.88	372.9
3.460	3	102.12	-1.71	92.89	0.0235	4032	10.0	18.87	371.4
3.470	3	103.12	-1.71	93.21	0.0230	4065	11.0	18.88	371.7
3.480	3	104.12	-1.82	93.32	0.0209	4079	11.0	18.87	372.7
3.490	3	105.12	-1.82	93.17	0.0182	4077	10.0	18.87	374.9
3.500	3	106.12	-1.76	93.22	0.0177	4064	11.0	18.88	375.6
3.510	3	107.12	-1.82	93.35	0.0138	4104	11.0	18.89	377.1
3.520	3	108.12	-1.82	93.38	0.0137	4072	11.0	18.88	377.4
3.530	3	109.12	-1.78	93.52	0.0167	4090	11.0	18.88	377.4
3.540	3	110.12	-1.82	93.55	0.0137	4035	11.0	18.89	377.5
3.550	3	111.12	-1.71	93.60	0.0119	4108	11.0	18.90	377.7
3.560	3	112.12	-1.65	93.75	0.0094	4125	11.0	18.90	381.4
3.570	3	113.12	-1.65	93.67	0.0083	4125	11.0	18.90	382.9
3.580	3	114.12	-1.67	93.75	0.0147	4156	12.0	18.91	384.8
3.590	3	115.12	-1.65	93.74	0.0169	4132	11.0	18.91	383.8
3.600	3	116.12	-1.65	93.78	0.0150	4098	11.0	18.90	384.1
3.610	3	117.12	-1.61	93.71	0.0127	3998	11.0	18.91	382.8
3.620	3	118.12	-1.65	93.39	0.0096	4058	12.0	18.91	380.2
3.630	3	119.12	-1.65	93.67	0.0218	4131	11.0	18.91	381.9
3.640	3	120.12	-1.71	93.70	0.0151	4139	11.0	18.91	381.8
3.650	3	121.12	-1.71	93.45	0.0187	4130	12.0	18.91	386.4
3.660	3	122.12	-1.70	93.64	0.0181	4169	12.0	18.92	388.2
3.670	3	123.12	-1.71	93.68	0.0176	4107	12.0	18.92	392.6
3.680	3	124.12	-1.71	93.35	0.0242	4095	12.0	18.92	399.3
3.690	3	125.12	-1.82	93.31	0.0230	4093	12.0	18.92	400.6
3.700	3	126.12	-1.75	93.32	0.0192	4085	11.0	18.93	403.4
3.710	3	127.12	-1.71	93.64	0.0205	4096	11.0	18.92	404.4
3.720	3	128.12	-1.65	93.44	0.0158	4161	12.0	18.92	406.7
3.730	3	129.12	-1.65	93.60	0.0304	4159	12.0	18.93	401.0
3.740	3	130.12	-1.56	93.72	0.0222	4198	12.0	18.93	389.8
3.750	3	131.12	-1.56	93.72	0.0220	4233	11.0	18.93	382.8
3.760	3	132.12	-1.52	94.02	0.0261	4317	11.0	18.93	384.7
3.770	3	133.12	-1.48	94.50	0.0272	4316	11.0	18.93	387.1
3.780	3	134.12	-1.43	94.59	0.0161	4353	11.0	18.93	390.0
3.790	3	135.12	-1.39	94.66	0.0192	4406	10.0	18.94	394.2
3.800	3	136.12	-1.34	94.82	0.0159	4354	10.0	18.94	398.3
3.810	3	137.12	-1.24	94.83	0.0158	4387	10.0	18.94	399.4
3.820	3	138.12	-1.17	94.78	0.0154	4285	10.0	18.94	401.1
3.830	3	139.12	-0.91	94.45	0.0043	4130	10.0	18.94	399.7
3.840	3	140.12	-0.03	95.02	0.0031	4371	10.0	18.95	401.3
3.850	3	141.12	1.17	95.88	0.0095	4465	11.0	18.94	401.1
3.860	3	142.12	2.63	999.00	0.0000	4412	10.0	18.95	402.6
3.870	3	143.12	2.43	999.00	0.0000	4488	10.0	18.96	399.8
3.880	3	144.12	2.26	999.00	0.0000	4378	10.0	18.95	390.2
3.890	3	145.12	1.99	96.86	0.0004	4257	10.0	18.96	369.4
3.900	3	146.12	1.87	97.57	0.0005	4341	10.0	18.96	338.5
3.910	3	147.12	1.28	97.91	0.0002	4414	9.0	18.96	293.2
3.920	3	148.12	1.40	96.06	0.0014	4579	9.0	18.96	238.2
3.930	3	149.12	3.97	999.00	0.0000	4562	8.0	18.96	196.2
3.940	3	150.12	4.87	999.00	0.0000	6738	8.0	18.96	171.4
3.950	4	0.61	4.68	999.00	0.0000	10130	8.0	18.97	170.2
3.960	4	1.61	4.80	999.00	0.0000	4796	9.0	18.96	192.1
3.970	4	2.61	4.76	999.00	0.0000	4420	9.0	18.97	233.7
3.980	4	3.61	4.44	999.00	0.0000	4303	9.0	18.97	282.0
3.990	4	4.61	3.55	999.00	0.0000	4112	10.0	18.96	321.4
4.000	4	5.61	-0.42	96.49	0.0001	4084	10.0	18.97	348.3
4.010	4	6.61	-1.30	96.29	0.0001	4032	10.0	18.97	360.8
4.020	4	7.61	-1.96	92.62	0.0025	4079	11.0	18.97	367.8
4.030	4	8.61	-2.14	92.45	0.0082	4057	11.0	18.97	370.8
4.040	4	9.61	-2.18	92.69	0.0104	4025	11.0	18.96	373.0
4.050	4	10.61	-2.35	92.51	0.0188	4038	11.0	18.97	374.5
4.060	4	11.61	-2.32	92.64	0.0302	4107	11.0	18.97	381.6
4.070	4	12.61	-2.31	92.99	0.0326	4048	11.0	18.97	388.2
4.080	4	13.61	-2.26	92.82	0.0201	4207	11.0	18.98	392.3
4.090	4	14.61	-2.15	93.06	0.0333	4177	10.0	18.97	397.3
4.100	4	15.61	-2.09	93.33	0.0218	4155	10.0	18.97	397.6
4.110	4	16.61	-1.93	93.57	0.0225	4334	10.0	18.98	399.3
4.120	4	17.61	-1.80	94.09	0.0412	4365	11.0	18.97	400.1
4.130	4	18.61	-1.73	94.30	0.0289	4323	10.0	18.98	399.9
4.140	4	19.61	-1.64	94.27	0.0158	4280	10.0	18.98	403.3
4.150	4	20.61	-1.58	94.21	0.0167	4301	10.0	18.98	404.6
4.160	4	21.61	-1.52	93.89	0.0285	4299	11.0	18.99	405.5
4.170	4	22.61	-1.57	94.00	0.0213	4195	10.0	18.99	403.5
4.180	4	23.61	-1.60	93.68	0.0165	4159	10.0	18.98	401.3
4.190	4	24.61	-1.59	93.67	0.0138	4167	10.0	18.98	399.2
4.200	4	25.61	-1.59	93.64	0.0242	4172	10.0	18.99	398.4
4.210	4	26.61	-1.59	93.69	0.0178	4222	10.0	18.98	396.4
4.220	4	27.61	-1.59	93.65	0.0236	4186	10.0	18.99	394.1
4.230	4	28.61	-1.61	93.85	0.0146	4213	10.0	18.99	394.6
4.240	4	29.61	-1.57	93.64	0.0097	4137	10.0	18.99	397.3
4.250	4	30.61	-1.56	93.35	0.0190	4150	10.0	18.99	400.6
4.260	4	31.61	-1.60	93.38	0.0121	4188	10.0	18.99	399.7
4.270	4	32.61	-1.59	93.45	0.0202	4168	9.0	18.99	398.5
4.280	4	33.61	-1.60	93.38	0.0140	4151	9.0	19.00	401.8
4.290	4	34.61	-1.63	93.48	0.0145	4137	9.0	18.99	404.8
4.300	4	35.61	-1.58	93.34	0.0190	4155	10.0	19.00	404.3
4.310	4	36.61	-1.47	93.40	0.0234	4171	10.0	19.00	402.4
4.320	4	37.61	-1.45	93.41	0.0373	4203	9.0	19.00	400.2
4.330	4	38.61	-1.46	93.70	0.0324	4263	10.0	19.00	394.8
4.340	4	39.61	-1.48	93.85	0.0350	4247	10.0	19.00	392.0
4.350	4	40.61	-1.51	93.99	0.0311	4280	10.0	19.00	391.2
4.360	4	41.61	-1.57	94.03	0.0276	4207	10.0	19.00	389.7
4.370	4	42.61	-1.56	93.97	0.0192	4248	10.0	19.01	390.6
4.380	4	43.61	-1.55	93.81	0.0291	4213	10.0	19.01	390.0
4.390	4	44.61	-1.55	93.68	0.0205	4119	10.0	19.01	391.2
4.400	4	45.61	-1.49	93.29	0.0280	4152	9.0	19.01	391.5
4.410	4	46.61	-1.52	93.33	0.0206	4171	10.0	19.01	389.4
4.420	4	47.61	-1.51	93.79	0.0168	4237	10.0	19.01	386.7
4.430	4	48.61	-1.55	93.99	0.0120	4253	10.0	19.01	384.6
4.440	4	49.61	-1.56	93.95	0.0181	4266	10.0	19.01	384.6
4.450	4	50.61	-1.58	93.73	0.0149	4306	10.0	19.01	385.4
4.460	4	51.61	-1.56	93.68	0.0336	4211	11.0	19.01	384.4
4.470	4	52.61	-1.60	94.03	0.0189	4218	10.0	19.02	382.4
4.480	4	53.61	-1.51	93.70	0.0202	4222	10.0	19.02	383.3
4.490	4	54.61	-1.52	93.85	0.0306	4194	11.0	19.02	383.7
4.500	4	55.61	-1.50	93.82	0.0195	4187	10.0	19.02	382.7
4.510	4	56.61	-1.37	93.72	0.0268	4183	9.0	19.02	382.2
4.520	4	57.61	-1.45	93.67	0.0284	4146	10.0	19.02	378.8
4.530	4	58.61	-1.32	93.73	0.0321	4208	10.0	19.03	379.8
4.540	4	59.61	-1.29	93.82	0.0272	4169	11.0	19.03	377.6
4.550	4	60.61	-1.35	93.82	0.0284	4278	10.0	19.03	378.5
4.560	4	61.61	-1.36	93.82	0.0336	4276	11.0	19.03	380.6
4.570	4	62.61	-1.45	93.84	0.0534	4243	11.0	19.03	380.9
4.580	4	63.61	-1.50	93.91	0.0493	4285	11.0	19.04	379.9
4.590	4	64.61	-1.61	93.78	0.0341	4288	10.0	19.03	375.7
4.600	4	65.61	-1.60	93.75	0.0368	4222	10.0	19.03	375.1
4.610	4	66.61	-1.60	93.62	0.0334	4252	10.0	19.03	375.5
4.620	4	67.61	-1.67	93.70	0.0332	4227	10.0	19.04	375.6
4.630	4	68.61	-1.75	93.58	0.0287	4277	11.0	19.04	375.0
4.640	4	69.61	-1.75	93.65	0.0465	4161	10.0	19.04	376.8
4.650	4	70.61	-1.85	93.46	0.0391	4220	11.0	19.04	376.0
4.660	4	71.61	-1.86	93.44	0.0415	4269	10.0	19.04	378.0
4.670	4	72.61	-1.91	93.61	0.0569	4219	10.0	19.04	380.9
4.680	4	73.61	-1.92	93.33	0.0506	4247	10.0	19.04	385.6
4.690	4	74.61	-2.00	93.62	0.0504	4170	10.0	19.05	388.7
4.700	4	75.61	-2.01	93.59	0.0221	4222	11.0	19.05	391.2
4.710	4	76.61	-2.05	93.49	0.0300	4277	11.0	19.05	391.3
4.720	4	77.61	-1.98	93.56	0.0376	4261	11.0	19.05	393.9
4.730	4	78.61	-1.86	93.61	0.0499	4227	10.0	19.06	391.1
4.740	4	79.61	-1.92	93.63	0.0431	4210	11.0	19.05	391.0
4.750	4	80.61	-2.00	93.55	0.0421	4217	10.0	19.06	387.8
4.760	4	81.61	-2.04	93.32	0.0556	4227	11.0	19.06	387.8
4.770	4	82.61	-2.07	93.05	0.0448	4137	11.0	19.06	389.6
4.780	4	83.61	-2.08	92.94	0.0675	4190	11.0	19.06	389.1
4.790	4	84.61	-2.09	92.91	0.0570	4067	11.0	19.06	390.6
4.800	4	85.61	-2.08	92.73	0.0441	4117	10.0	19.06	389.2
4.810	4	86.61	-2.08	92.84	0.0358	4117	11.0	19.07	388.8
4.820	4	87.61	-2.05	92.93	0.0239	4110	11.0	19.07	388.3
4.830	4	88.61	-2.02	92.66	0.0239	4093	11.0	19.07	385.9
4.840	4	89.61	-2.01	92.83	0.0399	4044	10.0	19.07	386.4
4.850	4	90.61	-2.01	92.81	0.0386	4090	10.0	19.07	383.4
4.860	4	91.61	-1.97	92.65	0.0323	4140	11.0	19.07	384.8
4.870	4	92.61	-1.95	92.99	0.0287	4187	11.0	19.07	384.3
4.880	4	93.61	-1.84	92.92	0.0348	4137	10.0	19.07	388.0
4.890	4	94.61	-1.91	92.86	0.0258	4201	10.0	19.07	388.4
4.900	4	95.61	-1.91	93.23	0.0264	4215	10.0	19.07	392.8
4.910	4	96.61	-1.85	93.27	0.0078	4239	10.0	19.08	397.0
4.920	4	97.61	-1.78	93.61	0.0204	4216	9.0	19.07	401.2
4.930	4	98.61	-1.75	93.61	0.0152	4235	10.0	19.08	405.9
4.940	4	99.61	-1.75	93.65	0.0264	4288	10.0	19.08	406.0
4.950	4	100.61	-1.72	93.69	0.0151	4248	10.0	19.08	409.3
4.960	4	101.61	-1.75	93.72	0.0145	4365	9.0	19.08	408.5
4.970	4	102.61	-1.77	93.95	0.0267	4412	9.0	19.08	405.9
4.980	4	103.61	-1.77	94.19	0.0121	4436	9.0	19.09	403.4
4.990	4	104.61	-1.77	94.07	0.0091	4632	9.0	19.08	403.3
5.000	4	105.61	-1.87	93.85	0.0113	4432	9.0	19.09	406.2
5.010	4	106.61	-1.88	93.87	0.0075	4371	9.0	19.09	406.6
5.020	4	107.61	-1.88	93.76	0.0074	4273	9.0	19.09	407.3
5.030	4	108.61	-1.88	93.82	0.0098	4264	10.0	19.09	410.6
5.040	4	109.61	-1.98	93.50	0.0083	4284	9.0	19.10	411.7
5.050	4	110.61	-1.98	93.49	0.0048	4317	9.0	19.10	410.3
5.060	4	111.61	-1.93	93.65	0.0115	4341	9.0	19.19	409.0
5.070	4	112.61	-1.93	94.53	0.0091	4555	10.0	19.19	407.8
5.080	4	113.61	-1.83	95.49	0.0093	4578	9.0	19.20	407.6
5.090	4	114.61	-1.75	95.46	0.0049	4582	9.0	19.20	405.1
5.100	4	115.61	-1.78	95.85	0.0056	4546	9.0	19.19	403.0
5.110	4	116.61	-1.82	96.19	0.0044	4546	10.0	19.20	403.5
5.120	4	117.61	-1.77	97.31	0.0035	4369	10.0	19.21	402.4
5.130	4	118.61	-1.81	106.19	0.0027	4358	9.0	19.20	402.5
5.140	4	119.61	-1.86	105.92	0.0033	4434	10.0	19.21	399.6
5.150	4	120.61	-1.79	105.79	0.0034	4374	10.0	19.20	395.3
5.160	4	121.61	-1.86	107.24	0.0015	4389	9.0	19.21	392.5
5.170	4	122.61	-1.81	94.31	0.0027	4367	9.0	19.21	394.4
5.180	4	123.61	-1.81	93.47	0.0068	4312	10.0	19.20	395.8
5.190	4	124.61	-1.78	93.64	0.0125	4245	9.0	19.21	396.9
5.200	4	125.61	-1.72	94.23	0.0062	4267	10.0	19.21	399.0
5.210	4	126.61	-1.62	97.04	0.0022	4262	10.0	19.21	398.9
5.220	4	127.61	-1.58	93.85	0.0023	4289	10.0	19.21	399.7
5.230	4	128.61	-1.69	100.94	0.0013	4383	10.0	19.22	403.1
5.240	4	129.61	-1.58	107.25	0.0024	4541	10.0	19.22	398.4
5.250	4	130.61	-1.49	107.48	0.0020	4467	10.0	19.22	395.2
5.260	4	131.61	-1.39	93.94	0.0013	4436	10.0	19.22	380.0
5.270	4	132.61	-1.28	95.09	0.0011	4416	10.0	19.22	378.6
5.280	4	133.61	-1.17	94.82	0.0010	4483	10.0	19.21	377.1
5.290	4	134.61	-1.11	100.98	0.0014	4591	10.0	19.21	377.3
5.300	4	135.61	-1.01	120.76	0.0006	4653	10.0	19.22	379.6
5.310	4	136.61	-0.92	112.37	0.0003	4607	9.0	19.23	380.7
5.320	4	137.61	-0.88	100.54	0.0007	4636	10.0	19.23	380.4
5.330	4	138.61	-0.76	100.53	0.0010	4611	10.0	19.22	378.4
5.340	4	139.61	-0.76	107.28	0.0003	4423	10.0	19.22	376.9
5.350	4	140.61	-0.35	108.27	0.0003	4447	10.0	19.22	377.1
5.360	4	141.61	0.30	112.86	0.0003	4369	10.0	19.23	375.3
5.370	4	142.61	2.55	102.14	0.0002	4515	10.0	19.23	374.8
5.380	4	143.61	2.38	96.55	0.0004	4190	10.0	19.23	370.2
5.390	4	144.61	2.16	999.00	0.0000	4200	10.0	19.23	362.9
5.400	4	145.61	1.69	999.00	0.0000	4513	10.0	19.23	349.6
5.410	4	146.61	1.62	999.00	0.0000	4520	10.0	19.24	329.1
5.420	4	147.61	1.14	122.55	0.0001	4437	9.0	19.23	298.0
5.430	4	148.61	1.47	95.39	0.0005	4359	9.0	19.23	256.0
5.440	4	149.61	3.02	96.51	0.0005	4553	9.0	19.23	217.6
5.450	4	150.61	4.33	999.00	0.0000	4842	8.0	19.23	193.5
5.460	5	0.53	4.28	999.00	0.0000	7323	9.0	19.23	186.3
5.470	5	1.53	4.33	999.00	0.0000	4965	8.0	19.24	198.0
5.480	5	2.53	4.38	999.00	0.0000	4677	8.0	19.24	229.7
5.490	5	3.53	4.07	999.00	0.0000	4723	9.0	19.24	274.3
5.500	5	4.53	3.50	999.00	0.0000	4726	9.0	19.23	320.1
5.510	5	5.53	-1.14	999.00	0.0000	4674	9.0	19.24	355.9
5.520	5	6.53	-1.84	98.66	0.0002	4472	10.0	19.23	380.3
5.530	5	7.53	-2.01	92.93	0.0008	4363	10.0	19.24	390.8
5.540	5	8.53	-2.17	93.22	0.0011	4415	10.0	19.23	393.3
5.550	5	9.53	-2.18	93.23	0.0053	4427	11.0	19.24	389.5
5.560	5	10.53	-2.12	94.00	0.0195	4641	10.0	19.23	386.5
5.570	5	11.53	-2.14	94.47	0.0380	4630	10.0	19.23	385.6
5.580	5	12.53	-2.10	94.42	0.0517	4624	10.0	19.24	388.5
5.590	5	13.53	-2.08	94.14	0.0437	4192	11.0	19.23	392.5
5.600	5	14.53	-2.14	92.84	0.0235	4086	11.0	19.24	394.4
5.610	5	15.53	-2.04	92.88	0.0397	4083	11.0	19.23	396.4
5.620	5	16.53	-2.10	92.80	0.0299	4025	11.0	19.24	396.7
5.630	5	17.53	-2.05	92.72	0.0203	4042	11.0	19.23	397.1
5.640	5	18.53	-2.00	92.77	0.0207	4131	12.0	19.24	399.0
5.650	5	19.53	-1.91	92.96	0.0281	4144	12.0	19.24	400.4
5.660	5	20.53	-1.85	93.30	0.0131	4188	11.0	19.24	402.8
5.670	5	21.53	-1.82	93.48	0.0236	4253	12.0	19.24	402.6
5.680	5	22.53	-1.80	93.66	0.0235	4230	12.0	19.24	406.6
5.690	5	23.53	-1.75	93.58	0.0211	4203	12.0	19.24	407.2
5.700	5	24.53	-1.70	93.74	0.0285	4259	11.0	19.24	406.0
5.710	5	25.53	-1.70	93.97	0.0170	4234	11.0	19.25	407.5
5.720	5	26.53	-1.67	93.64	0.0284	4268	11.0	19.24	406.5
5.730	5	27.53	-1.65	93.69	0.0215	4100	12.0	19.25	407.1
5.740	5	28.53	-1.64	93.52	0.0219	4124	12.0	19.25	408.1
5.750	5	29.53	-1.58	93.43	0.0197	4068	12.0	19.25	407.1
5.760	5	30.53	-1.64	93.09	0.0172	3905	11.0	19.25	409.6
5.770	5	31.53	-1.59	92.80	0.0057	3907	12.0	19.24	408.8
5.780	5	32.53	-1.64	92.89	0.0194	4151	12.0	19.25	406.0
5.790	5	33.53	-1.64	93.76	0.0344	4220	12.0	19.25	405.3
5.800	5	34.53	-1.64	93.74	0.0225	4283	12.0	19.25	404.2
5.810	5	35.53	-1.75	93.78	0.0250	4252	12.0	19.25	401.4
5.820	5	36.53	-1.70	93.74	0.0327	4246	12.0	19.25	399.4
5.830	5	37.53	-1.74	93.86	0.0284	4266	12.0	19.25	399.0
5.840	5	38.53	-1.74	93.90	0.0328	4291	12.0	19.25	397.0
5.850	5	39.53	-1.74	93.84	0.0232	4237	12.0	19.26	398.8
5.860	5	40.53	-1.70	93.73	0.0140	4159	11.0	19.26	402.5
5.870	5	41.53	-1.79	93.64	0.0245	4254	11.0	19.26	405.6
5.880	5	42.53	-1.80	94.17	0.0180	4403	11.0	19.26	406.8
5.890	5	43.53	-1.78	94.43	0.0106	4446	12.0	19.26	410.0
5.900	5	44.53	-1.79	94.21	0.0097	4415	11.0	19.26	407.8
5.910	5	45.53	-1.73	94.14	0.0151	4448	11.0	19.26	407.8
5.920	5	46.53	-1.76	94.06	0.0242	4445	12.0	19.27	408.5
5.930	5	47.53	-1.76	94.01	0.0161	4442	11.0	19.28	406.9
5.940	5	48.53	-1.71	94.38	0.0301	4418	11.0	19.28	405.3
5.950	5	49.53	-1.62	94.43	0.0153	4481	11.0	19.62	404.9
5.960	5	50.53	-1.64	94.37	0.0210	4347	11.0	19.16	407.1
5.970	5	51.53	-1.67	93.91	0.0162	4238	11.0	18.89	409.9
5.980	5	52.53	-1.62	93.77	0.0232	4281	11.0	18.80	410.1
5.990	5	53.53	-1.59	93.79	0.0223	4259	11.0	18.77	412.6
6.000	5	54.53	-1.52	93.67	0.0242	4268	11.0	18.77	414.9
6.010	5	55.53	-1.64	93.98	0.0370	4302	11.0	18.79	419.3
6.020	5	56.53	-1.65	94.19	0.0212	4454	11.0	18.82	421.8
6.030	5	57.53	-1.62	94.31	0.0222	4555	11.0	18.80	425.9
6.040	5	58.53	-1.65	94.55	0.0338	4508	11.0	18.78	431.3
6.050	5	59.53	-1.60	94.12	0.0292	4353	11.0	18.78	435.4
6.060	5	60.53	-1.65	94.01	0.0185	4199	11.0	18.80	439.1
6.070	5	61.53	-1.65	93.97	0.0210	4363	12.0	18.82	442.3
6.080	5	62.53	-1.55	94.49	0.0279	4398	11.0	18.85	442.4
6.090	5	63.53	-1.50	94.47	0.0291	4404	11.0	18.90	444.4
6.100	5	64.53	-1.50	94.58	0.0134	4483	11.0	18.97	441.4
6.110	5	65.53	-1.47	94.71	0.0080	4462	11.0	19.07	444.8
6.120	5	66.53	-1.39	94.45	0.0078	4483	11.0	19.14	424.7
6.130	5	67.53	-1.34	94.51	0.0101	4574	11.0	19.20	421.2
6.140	5	68.53	-1.29	94.62	0.0124	4512	11.0	19.25	418.5
6.150	5	69.53	-1.22	94.63	0.0197	4432	11.0	19.33	417.8
6.160	5	70.53	-1.22	94.66	0.0187	4427	10.0	19.39	417.8
6.170	5	71.53	-1.17	94.83	0.0307	4581	10.0	19.48	421.0
6.180	5	72.53	-1.17	94.95	0.0302	4618	10.0	19.54	424.2
6.190	5	73.53	-0.76	95.05	0.0235	4681	10.0	19.62	424.2
6.200	5	74.53	-0.56	95.54	0.0324	4728	10.0	19.73	428.0
6.210	5	75.53	-0.40	94.63	0.0068	4499	10.0	19.82	435.3
6.220	5	76.53	-0.02	95.26	0.0028	4370	10.0	19.90	442.0
6.230	5	77.53	2.30	95.70	0.0052	4344	10.0	20.01	446.0
6.240	5	78.53	2.19	96.23	0.0025	4380	10.0	20.09	444.1
6.250	5	79.53	1.90	999.00	0.0000	4312	9.0	20.22	438.0
6.260	5	80.53	1.85	999.00	0.0000	4462	8.0	20.35	419.8
6.270	5	81.53	1.42	999.00	0.0000	4680	8.0	20.47	384.8
6.280	5	82.53	1.08	999.00	0.0000	4721	8.0	20.60	327.8
6.290	5	83.53	1.27	999.00	0.0000	4614	6.0	20.71	250.6
6.300	5	84.53	1.23	105.27	0.0003	4555	5.0	20.83	166.4
6.310	5	85.53	0.71	999.00	0.0000	5026	3.0	20.95	111.7
