Geotek MSCL 7.9 - TN336_TC4-04_Try2.raw created at 9:23:58 on 1/20/2016.


Core Depth	Section	Sect Depth	A Gamma  	Mag Sus  	Temp     	NC Res   
m		cm	cps	SI x 10^-5	°C	mV

0.000	1	0.00	1509	12.0	21.04	116.5
0.010	1	1.00	1410	15.0	21.05	177.9
0.020	1	2.00	1432	18.0	21.06	266.5
0.030	1	3.00	1470	19.0	21.06	361.8
0.040	1	4.00	1477	21.0	21.07	438.3
0.050	1	5.00	1414	22.0	21.06	488.8
0.060	1	6.00	1436	22.0	21.07	518.2
0.070	1	7.00	1473	22.0	21.08	534.5
0.080	1	8.00	1493	23.0	21.08	544.9
0.090	1	9.00	1486	23.0	21.08	552.3
0.100	1	10.00	1487	23.0	21.09	558.0
0.110	1	11.00	1439	23.0	21.10	560.2
0.120	1	12.00	1481	24.0	21.10	558.8
0.130	1	13.00	1476	24.0	21.10	557.2
0.140	1	14.00	1477	24.0	21.11	554.3
0.150	1	15.00	1469	24.0	21.11	549.6
0.160	1	16.00	1461	24.0	21.11	543.4
0.170	1	17.00	1466	25.0	21.12	536.3
0.180	1	18.00	1444	25.0	21.13	529.8
0.190	1	19.00	1410	25.0	21.13	525.7
0.200	1	20.00	1432	24.0	21.13	521.7
0.210	1	21.00	1450	25.0	21.13	515.6
0.220	1	22.00	1453	25.0	21.14	506.1
0.230	1	23.00	1432	25.0	21.14	488.6
0.240	1	24.00	1402	25.0	21.14	480.1
0.250	1	25.00	1420	24.0	21.14	471.8
0.260	1	26.00	1465	25.0	21.15	462.3
0.270	1	27.00	1467	25.0	21.16	453.9
0.280	1	28.00	1342	25.0	21.16	447.6
0.290	1	29.00	1381	25.0	21.16	442.7
0.300	1	30.00	1282	24.0	21.16	437.0
0.310	1	31.00	1267	24.0	21.16	428.0
0.320	1	32.00	1250	24.0	21.17	421.3
0.330	1	33.00	1208	24.0	21.18	415.7
0.340	1	34.00	1241	24.0	21.18	410.7
0.350	1	35.00	1237	23.0	21.19	406.7
0.360	1	36.00	1244	24.0	21.18	403.2
0.370	1	37.00	1243	23.0	21.19	398.1
0.380	1	38.00	1237	23.0	21.20	390.5
0.390	1	39.00	1198	23.0	21.20	381.7
0.400	1	40.00	1201	22.0	21.20	374.8
0.410	1	41.00	1389	22.0	21.20	369.6
0.420	1	42.00	1219	21.0	21.21	366.7
0.430	1	43.00	1207	20.0	21.21	364.8
0.440	1	44.00	1224	20.0	21.21	362.8
0.450	1	45.00	1213	20.0	21.21	362.9
0.460	1	46.00	1188	20.0	21.22	362.8
0.470	1	47.00	1219	19.0	21.22	363.2
0.480	1	48.00	1195	19.0	21.22	364.4
0.490	1	49.00	1208	18.0	21.24	365.1
0.500	1	50.00	1261	18.0	21.22	367.0
0.510	1	51.00	1243	17.0	21.23	369.0
0.520	1	52.00	1316	16.0	21.23	369.1
0.530	1	53.00	1291	16.0	21.24	366.2
0.540	1	54.00	1252	15.0	21.24	360.2
0.550	1	55.00	1246	15.0	21.24	353.3
0.560	1	56.00	1251	15.0	21.25	352.8
0.570	1	57.00	1238	15.0	21.25	357.8
0.580	1	58.00	1284	14.0	21.25	363.3
0.590	1	59.00	1263	14.0	21.25	367.2
0.600	1	60.00	1262	13.0	21.26	367.2
0.610	1	61.00	1244	13.0	21.26	366.3
0.620	1	62.00	1234	13.0	21.26	366.9
0.630	1	63.00	1240	13.0	21.26	368.5
0.640	1	64.00	1268	13.0	21.27	369.2
0.650	1	65.00	1246	13.0	21.27	370.3
0.660	1	66.00	1285	12.0	21.27	371.3
0.670	1	67.00	1264	11.0	21.27	370.3
0.680	1	68.00	1316	12.0	21.28	368.3
0.690	1	69.00	1340	12.0	21.29	364.8
0.700	1	70.00	1269	12.0	21.29	359.9
0.710	1	71.00	1267	12.0	21.30	358.8
0.720	1	72.00	1271	13.0	21.30	359.8
0.730	1	73.00	1245	12.0	21.30	364.7
0.740	1	74.00	1276	12.0	21.30	367.5
0.750	1	75.00	1280	12.0	21.30	365.6
0.760	1	76.00	1268	12.0	21.31	360.5
0.770	1	77.00	1283	12.0	21.31	354.4
0.780	1	78.00	1301	12.0	21.31	356.6
0.790	1	79.00	1308	12.0	21.31	360.8
0.800	1	80.00	1310	12.0	21.32	365.2
0.810	1	81.00	1344	12.0	21.32	371.6
0.820	1	82.00	1310	12.0	21.32	376.8
0.830	1	83.00	1322	12.0	21.33	383.2
0.840	1	84.00	1308	12.0	21.34	383.1
0.850	1	85.00	1320	11.0	21.34	381.6
0.860	1	86.00	1293	12.0	21.34	376.6
0.870	1	87.00	1250	12.0	21.34	371.1
0.880	1	88.00	1310	12.0	21.34	364.8
0.890	1	89.00	1225	13.0	21.34	359.3
0.900	1	90.00	1227	12.0	21.35	356.3
0.910	1	91.00	1228	12.0	21.35	356.4
0.920	1	92.00	1299	12.0	21.36	357.8
0.930	1	93.00	1302	13.0	21.36	359.2
0.940	1	94.00	1311	12.0	21.36	360.5
0.950	1	95.00	1281	13.0	21.36	360.3
0.960	1	96.00	1268	12.0	21.36	359.4
0.970	1	97.00	1291	13.0	21.36	359.3
0.980	1	98.00	1263	12.0	21.37	360.5
0.990	1	99.00	1277	13.0	21.37	361.5
1.000	1	100.00	1274	12.0	21.37	361.0
1.010	1	101.00	1271	12.0	21.39	360.3
1.020	1	102.00	1282	13.0	21.40	359.3
1.030	1	103.00	1292	12.0	21.40	358.3
1.040	1	104.00	1215	12.0	21.40	356.7
1.050	1	105.00	1232	12.0	21.40	355.3
1.060	1	106.00	1232	13.0	21.41	353.5
1.070	1	107.00	1257	12.0	21.40	352.1
1.080	1	108.00	1231	12.0	21.41	350.7
1.090	1	109.00	1229	12.0	21.41	349.0
1.100	1	110.00	1223	12.0	21.41	346.3
1.110	1	111.00	1246	12.0	21.42	344.9
1.120	1	112.00	1225	12.0	21.42	344.3
1.130	1	113.00	1255	13.0	21.42	344.7
1.140	1	114.00	1239	13.0	21.42	345.7
1.150	1	115.00	1233	12.0	21.42	346.8
1.160	1	116.00	1224	12.0	21.42	349.3
1.170	1	117.00	1209	12.0	21.42	350.4
1.180	1	118.00	1240	13.0	21.43	352.4
1.190	1	119.00	1277	12.0	21.43	351.7
1.200	1	120.00	1242	12.0	21.44	343.5
1.210	1	121.00	1229	12.0	21.43	322.8
1.220	1	122.00	1238	12.0	21.45	319.7
1.230	1	123.00	1251	12.0	21.45	317.4
1.240	1	124.00	1249	13.0	21.44	315.6
1.250	1	125.00	1240	12.0	21.45	314.7
1.260	1	126.00	1226	12.0	21.45	313.1
1.270	1	127.00	1224	12.0	21.46	312.5
1.280	1	128.00	1284	12.0	21.46	306.4
1.290	1	129.00	1265	12.0	21.47	303.6
1.300	1	130.00	1266	12.0	21.47	300.5
1.310	1	131.00	1251	11.0	21.47	295.5
1.320	1	132.00	1282	11.0	21.48	289.5
1.330	1	133.00	1245	11.0	21.48	280.5
1.340	1	134.00	1264	11.0	21.48	270.6
1.350	1	135.00	1379	10.0	21.48	256.1
1.360	1	136.00	1359	10.0	21.48	234.7
1.370	1	137.00	1248	10.0	21.49	202.0
1.380	1	138.00	1218	9.0	21.49	159.3
1.390	1	139.00	1252	7.0	21.49	115.1
1.400	1	140.00	4013	6.0	21.50	75.7
