Geotek MSCL 7.9 - TN336_TC12-12.raw created at 5:35:08 on 1/21/2016.


Core Depth	Section	Sect Depth	CTD 	Tr. Time 	PW Amp   	A Gamma  	Mag Sus  	Temp     	NC Res   
m		cm	mm	µsec		cps	SI x 10^-5	°C	mV

-0.638	cal	0.02	0.88	999.00	0.0000	13513	-2.0	17.94	5.6
-0.578	cal	6.02	0.18	96.99	0.0035	6509	-2.0	17.94	23.1
-0.518	cal	12.02	-2.65	95.24	0.0371	6601	-2.0	17.94	26.5
-0.458	cal	18.02	-2.26	95.66	0.0167	6829	-3.0	17.94	25.8
-0.398	cal	24.02	0.53	97.17	0.0015	6673	-3.0	17.97	32.8
-0.338	cal	30.02	2.75	97.74	0.0158	6561	-2.0	17.97	100.7
-0.278	cal	36.02	1.21	96.22	0.0100	6606	-2.0	17.97	602.4
-0.218	cal	42.02	-1.79	94.44	0.0070	6628	-2.0	17.98	790.6
-0.158	cal	48.02	-2.21	94.66	0.0318	6679	-2.0	17.98	789.4
-0.098	cal	54.02	-0.77	94.69	0.0087	6589	-2.0	17.99	772.3
-0.038	cal	60.02	0.00	95.77	0.0177	6577	1.0	17.99	553.6
0.002	1	0.20	4.34	999.00	0.0000	9641	9.0	18.01	272.4
0.012	1	1.20	4.24	999.00	0.0000	5438	11.0	18.01	347.5
0.022	1	2.20	4.41	999.00	0.0000	5330	13.0	18.01	451.9
0.032	1	3.20	3.93	97.22	0.0031	5282	15.0	18.01	548.0
0.042	1	4.20	3.31	97.50	0.0015	5327	16.0	18.03	623.7
0.052	1	5.20	-0.74	94.97	0.0003	5229	17.0	18.02	675.9
0.062	1	6.20	-1.64	94.80	0.0010	5223	18.0	18.02	708.3
0.072	1	7.20	-2.00	94.61	0.0094	5298	18.0	18.02	727.2
0.082	1	8.20	-1.99	94.93	0.0109	5280	18.0	18.02	736.4
0.092	1	9.20	-2.22	94.99	0.0102	5385	18.0	18.03	742.3
0.102	1	10.20	-2.27	94.97	0.0183	5328	18.0	18.03	745.9
0.112	1	11.20	-2.28	95.16	0.0233	5262	17.0	18.03	749.7
0.122	1	12.20	-2.33	95.14	0.0184	5362	18.0	18.03	749.1
0.132	1	13.20	-2.28	95.28	0.0132	5323	18.0	18.03	748.5
0.142	1	14.20	-2.22	95.26	0.0113	5383	18.0	18.03	746.5
0.152	1	15.20	-2.33	95.37	0.0115	5308	18.0	18.04	742.7
0.162	1	16.20	-2.27	95.22	0.0120	5322	18.0	18.05	739.2
0.172	1	17.20	-2.17	95.25	0.0149	5315	18.0	18.04	731.0
0.182	1	18.20	-2.22	95.30	0.0211	5227	18.0	18.04	727.6
0.192	1	19.20	-2.18	95.29	0.0197	5202	19.0	18.04	724.2
0.202	1	20.20	-2.11	95.28	0.0351	5126	19.0	18.05	717.1
0.212	1	21.20	-2.18	95.23	0.0439	4972	19.0	18.05	702.5
0.222	1	22.20	-2.23	95.44	0.0260	4893	19.0	18.05	689.3
0.232	1	23.20	-2.12	95.67	0.0200	4945	19.0	18.05	683.7
0.242	1	24.20	-2.07	95.78	0.0183	5056	19.0	18.05	684.4
0.252	1	25.20	-2.03	95.64	0.0140	5091	19.0	18.05	682.1
0.262	1	26.20	-1.93	95.76	0.0171	5157	19.0	18.06	678.7
0.272	1	27.20	-2.15	95.66	0.0125	5150	18.0	18.05	670.0
0.282	1	28.20	-2.01	95.66	0.0068	5167	18.0	18.05	656.3
0.292	1	29.20	-1.90	95.71	0.0065	5143	18.0	18.06	644.9
0.302	1	30.20	-1.90	95.79	0.0062	5085	18.0	18.06	635.6
0.312	1	31.20	-1.86	95.60	0.0173	5013	19.0	18.07	585.4
0.322	1	32.20	-1.81	95.78	0.0122	5050	18.0	18.07	575.1
0.332	1	33.20	-1.81	95.76	0.0115	5015	18.0	18.07	571.0
0.342	1	34.20	-1.91	95.73	0.0070	4994	18.0	18.07	566.9
0.352	1	35.20	-1.82	95.65	0.0109	4959	18.0	18.07	562.7
0.362	1	36.20	-1.74	95.67	0.0125	4942	19.0	18.07	557.0
0.372	1	37.20	-1.71	95.48	0.0154	5049	18.0	18.08	545.8
0.382	1	38.20	-1.47	95.70	0.0207	5207	18.0	18.07	534.9
0.392	1	39.20	-0.57	96.19	0.0053	5159	18.0	18.08	525.9
0.402	1	40.20	1.83	96.54	0.0009	5061	19.0	18.09	518.9
0.412	1	41.20	2.68	98.16	0.0001	5026	19.0	18.08	508.4
0.422	1	42.20	2.16	999.00	0.0000	4869	19.0	18.09	493.0
0.432	1	43.20	1.66	999.00	0.0000	4949	19.0	18.09	470.7
0.442	1	44.20	1.25	999.00	0.0000	5043	19.0	18.09	434.1
0.452	1	45.20	0.71	999.00	0.0000	4976	19.0	18.09	377.2
0.462	1	46.20	0.10	142.76	0.0001	5003	18.0	18.10	292.0
0.472	1	47.20	3.30	999.00	0.0000	4805	17.0	18.10	208.0
0.482	1	48.20	4.19	999.00	0.0000	8534	17.0	18.10	170.2
0.492	2	0.42	3.99	999.00	0.0000	10437	18.0	18.10	186.5
0.502	2	1.42	4.02	999.00	0.0000	4760	18.0	18.11	243.7
0.512	2	2.42	3.98	98.77	0.0001	4684	19.0	18.11	318.3
0.522	2	3.42	3.64	99.34	0.0001	4614	19.0	18.11	391.6
0.532	2	4.42	2.52	999.00	0.0000	4714	19.0	18.11	453.0
0.542	2	5.42	-1.15	95.84	0.0019	4733	19.0	18.11	499.2
0.552	2	6.42	-1.74	95.62	0.0043	4784	18.0	18.11	529.1
0.562	2	7.42	-1.94	95.29	0.0098	4750	18.0	18.10	547.8
0.572	2	8.42	-2.16	95.05	0.0091	4886	17.0	18.11	560.9
0.582	2	9.42	-2.22	95.26	0.0465	4866	17.0	18.11	567.8
0.592	2	10.42	-2.22	95.37	0.0437	4904	17.0	18.11	571.7
0.602	2	11.42	-2.28	95.35	0.0333	4984	17.0	18.11	575.2
0.612	2	12.42	-2.25	95.39	0.0348	4910	16.0	18.12	576.8
0.622	2	13.42	-2.22	95.23	0.0274	4877	15.0	18.12	579.1
0.632	2	14.42	-2.28	95.21	0.0273	4783	15.0	18.12	576.7
0.642	2	15.42	-2.28	94.92	0.0488	4849	15.0	18.12	572.9
0.652	2	16.42	-2.28	94.98	0.0511	4917	14.0	18.13	572.4
0.662	2	17.42	-2.17	95.29	0.0445	4913	14.0	18.13	569.0
0.672	2	18.42	-2.11	95.11	0.0361	4735	13.0	18.13	563.9
0.682	2	19.42	-2.06	95.08	0.0403	4922	13.0	18.13	560.5
0.692	2	20.42	-1.84	95.33	0.0410	4983	13.0	18.14	558.3
0.702	2	21.42	-1.91	95.50	0.0421	4983	13.0	18.14	561.5
0.712	2	22.42	-1.89	95.36	0.0591	4990	13.0	18.15	564.7
0.722	2	23.42	-1.69	95.65	0.0472	4915	12.0	18.14	560.7
0.732	2	24.42	-1.79	95.66	0.0365	4883	13.0	18.14	554.9
0.742	2	25.42	-1.86	95.77	0.0185	4922	13.0	18.14	546.3
0.752	2	26.42	-1.86	95.70	0.0162	4742	13.0	18.14	539.2
0.762	2	27.42	-1.86	95.44	0.0129	4660	14.0	18.15	538.8
0.772	2	28.42	-1.85	95.39	0.0145	4616	15.0	18.16	538.4
0.782	2	29.42	-1.81	95.21	0.0115	4530	15.0	18.16	539.0
0.792	2	30.42	-1.85	94.92	0.0104	4471	15.0	18.16	532.9
0.802	2	31.42	-1.87	94.61	0.0111	4458	15.0	18.15	522.9
0.812	2	32.42	-1.76	94.61	0.0278	4497	16.0	18.16	515.0
0.822	2	33.42	-1.82	94.87	0.0154	4486	16.0	18.15	507.5
0.832	2	34.42	-1.87	94.82	0.0162	4397	16.0	18.16	497.9
0.842	2	35.42	-1.82	94.67	0.0206	4452	16.0	18.16	488.7
0.852	2	36.42	-1.82	94.57	0.0236	4355	16.0	18.16	480.9
0.862	2	37.42	-1.77	94.43	0.0196	4339	18.0	18.16	471.2
0.872	2	38.42	-1.77	94.21	0.0181	4267	18.0	18.16	460.4
0.882	2	39.42	-1.76	94.07	0.0261	4252	19.0	18.17	450.8
0.892	2	40.42	-1.76	94.21	0.0169	4253	19.0	18.18	442.9
0.902	2	41.42	-1.76	94.10	0.0174	4246	19.0	18.17	434.7
0.912	2	42.42	-1.71	94.17	0.0185	4287	19.0	18.18	426.5
0.922	2	43.42	-1.71	94.15	0.0262	4345	20.0	18.18	418.4
0.932	2	44.42	-1.74	94.19	0.0153	4284	19.0	18.19	411.9
0.942	2	45.42	-1.74	93.84	0.0346	4190	20.0	18.18	408.4
0.952	2	46.42	-1.71	93.63	0.0183	4117	20.0	18.19	405.4
0.962	2	47.42	-1.70	93.61	0.0176	4198	20.0	18.18	405.9
0.972	2	48.42	-1.66	94.09	0.0162	4187	20.0	18.18	405.4
0.982	2	49.42	-1.66	94.01	0.0134	4161	20.0	18.19	405.9
0.992	2	50.42	-1.61	93.82	0.0154	4241	20.0	18.19	403.9
1.002	2	51.42	-1.64	93.83	0.0214	4221	20.0	18.19	402.6
1.012	2	52.42	-1.86	93.67	0.0197	4161	20.0	18.19	402.5
1.022	2	53.42	-1.74	93.50	0.0159	4189	20.0	18.20	401.8
1.032	2	54.42	-1.81	93.68	0.0156	4172	21.0	18.20	403.8
1.042	2	55.42	-1.71	93.94	0.0178	4199	20.0	18.20	408.4
1.052	2	56.42	-1.63	94.05	0.0120	4150	20.0	18.21	410.4
1.062	2	57.42	-1.56	94.12	0.0108	4161	19.0	18.20	413.3
1.072	2	58.42	-1.54	94.18	0.0131	4226	20.0	18.20	414.6
1.082	2	59.42	-1.58	94.07	0.0103	4125	19.0	18.20	414.2
1.092	2	60.42	-1.54	93.70	0.0242	4166	19.0	18.21	415.9
1.102	2	61.42	-1.60	94.05	0.0358	4337	18.0	18.21	418.6
1.112	2	62.42	-1.61	94.36	0.0395	4428	18.0	18.21	422.5
1.122	2	63.42	-1.66	94.43	0.0303	4328	17.0	18.21	424.3
1.132	2	64.42	-1.61	94.47	0.0246	4375	17.0	18.21	428.1
1.142	2	65.42	-1.68	94.47	0.0234	4385	16.0	18.21	430.5
1.152	2	66.42	-1.71	94.51	0.0277	4382	16.0	18.21	431.7
1.162	2	67.42	-1.78	94.67	0.0214	4379	15.0	18.22	433.1
1.172	2	68.42	-1.75	94.61	0.0261	4443	15.0	18.23	432.9
1.182	2	69.42	-1.81	94.64	0.0224	4407	14.0	18.22	432.4
1.192	2	70.42	-1.85	94.57	0.0439	4462	14.0	18.22	431.0
1.202	2	71.42	-1.86	94.60	0.0366	4471	13.0	18.23	432.0
1.212	2	72.42	-1.96	94.71	0.0290	4500	13.0	18.23	434.5
1.222	2	73.42	-2.01	94.86	0.0249	4454	13.0	18.23	433.5
1.232	2	74.42	-2.06	94.62	0.0210	4481	13.0	18.24	431.0
1.242	2	75.42	-2.11	94.49	0.0221	4394	13.0	18.23	430.5
1.252	2	76.42	-2.16	94.49	0.0304	4478	12.0	18.24	431.1
1.262	2	77.42	-2.21	94.67	0.0252	4468	12.0	18.23	430.8
1.272	2	78.42	-2.25	94.56	0.0242	4394	12.0	18.23	432.2
1.282	2	79.42	-2.25	94.54	0.0186	4410	11.0	18.24	430.2
1.292	2	80.42	-2.34	94.55	0.0132	4413	11.0	18.25	427.7
1.302	2	81.42	-2.35	94.46	0.0104	4363	11.0	18.24	424.1
1.312	2	82.42	-2.37	94.42	0.0191	4385	11.0	18.25	422.2
1.322	2	83.42	-2.28	94.55	0.0182	4446	10.0	18.25	421.0
1.332	2	84.42	-2.22	94.46	0.0159	4332	11.0	18.25	417.8
1.342	2	85.42	-2.17	94.24	0.0188	4303	10.0	18.25	414.5
1.352	2	86.42	-2.12	94.20	0.0223	4265	10.0	18.25	411.8
1.362	2	87.42	-2.04	94.18	0.0225	4286	11.0	18.25	410.5
1.372	2	88.42	-2.05	94.11	0.0280	4293	10.0	18.26	409.1
1.382	2	89.42	-1.86	94.18	0.0294	4298	10.0	18.26	414.1
1.392	2	90.42	-1.89	94.47	0.0276	4396	10.0	18.26	417.2
1.402	2	91.42	-1.89	94.31	0.0202	4260	10.0	18.26	419.3
1.412	2	92.42	-1.83	94.09	0.0210	4326	10.0	18.27	421.2
1.422	2	93.42	-1.90	94.39	0.0214	4307	10.0	18.27	423.4
1.432	2	94.42	-1.90	94.44	0.0175	4331	10.0	18.26	425.4
1.442	2	95.42	-1.94	94.55	0.0152	4334	9.0	18.27	423.8
1.452	2	96.42	-2.05	94.46	0.0123	4266	9.0	18.27	423.4
1.462	2	97.42	-2.05	94.19	0.0131	4295	9.0	18.28	421.2
1.472	2	98.42	-2.11	94.17	0.0194	4304	10.0	18.28	416.6
1.482	2	99.42	-2.11	94.08	0.0198	4265	9.0	18.28	411.2
1.492	2	100.42	-2.11	94.05	0.0214	4282	10.0	18.27	410.2
1.502	2	101.42	-2.12	94.13	0.0169	4289	10.0	18.29	407.1
1.512	2	102.42	-2.06	94.17	0.0155	4279	9.0	18.28	405.9
1.522	2	103.42	-2.07	94.27	0.0093	4207	10.0	18.29	402.7
1.532	2	104.42	-2.15	93.91	0.0106	4167	10.0	18.29	401.3
1.542	2	105.42	-2.22	93.39	0.0190	4064	9.0	18.29	398.4
1.552	2	106.42	-2.07	93.27	0.0130	4063	10.0	18.29	395.6
1.562	2	107.42	-2.10	93.45	0.0112	4091	10.0	18.29	394.9
1.572	2	108.42	-2.18	93.24	0.0214	4117	9.0	18.31	395.8
1.582	2	109.42	-2.09	93.58	0.0128	4114	9.0	18.32	396.9
1.592	2	110.42	-2.02	93.78	0.0135	4196	9.0	18.32	397.0
1.602	2	111.42	-2.01	93.84	0.0110	4173	9.0	18.32	399.9
1.612	2	112.42	-1.97	94.05	0.0208	4295	9.0	18.32	403.8
1.622	2	113.42	-1.92	94.44	0.0198	4288	10.0	18.32	409.4
1.632	2	114.42	-1.92	94.44	0.0187	4383	10.0	18.32	415.1
1.642	2	115.42	-1.86	94.55	0.0240	4402	9.0	18.32	419.0
1.652	2	116.42	-1.92	94.57	0.0303	4409	10.0	18.33	423.2
1.662	2	117.42	-1.88	94.89	0.0114	4356	9.0	18.33	426.0
1.672	2	118.42	-1.92	95.03	0.0092	4408	10.0	18.33	426.0
1.682	2	119.42	-1.86	94.97	0.0092	4456	10.0	18.33	428.3
1.692	2	120.42	-1.86	94.98	0.0125	4491	9.0	18.33	428.2
1.702	2	121.42	-1.87	95.11	0.0094	4493	10.0	18.33	430.9
1.712	2	122.42	-1.84	94.99	0.0076	4417	10.0	18.33	430.5
1.722	2	123.42	-1.88	94.85	0.0075	4244	10.0	18.33	426.0
1.732	2	124.42	-1.84	94.53	0.0076	4176	10.0	18.34	421.4
1.742	2	125.42	-1.83	94.40	0.0074	4276	10.0	18.34	412.6
1.752	2	126.42	-1.95	94.46	0.0077	4242	10.0	18.33	407.9
1.762	2	127.42	-1.79	94.62	0.0061	4229	10.0	18.34	400.7
1.772	2	128.42	-1.81	94.63	0.0048	4281	10.0	18.34	382.3
1.782	2	129.42	-1.76	94.58	0.0051	4141	11.0	18.35	379.8
1.792	2	130.42	-1.65	94.04	0.0041	4137	11.0	18.35	380.4
1.802	2	131.42	-1.56	94.06	0.0045	4119	11.0	18.35	377.7
1.812	2	132.42	-1.53	94.10	0.0048	4136	11.0	18.35	376.5
1.822	2	133.42	-1.43	94.53	0.0067	4256	11.0	18.35	372.9
1.832	2	134.42	-1.39	94.36	0.0074	4254	12.0	18.36	369.7
1.842	2	135.42	-1.18	94.24	0.0126	4234	12.0	18.35	368.3
1.852	2	136.42	-1.13	94.46	0.0094	4158	12.0	18.35	364.5
1.862	2	137.42	-0.92	94.49	0.0061	4125	11.0	18.36	361.3
1.872	2	138.42	-0.66	94.45	0.0087	4230	12.0	18.36	354.6
1.882	2	139.42	2.98	96.18	0.0014	4298	12.0	18.36	342.3
1.892	2	140.42	2.83	96.26	0.0005	4269	12.0	18.36	329.1
1.902	2	141.42	2.67	999.00	0.0000	4498	13.0	18.36	316.4
1.912	2	142.42	2.60	100.23	0.0002	4630	13.0	18.37	297.6
1.922	2	143.42	1.95	100.28	0.0001	4662	14.0	18.37	263.4
1.932	2	144.42	0.95	99.30	0.0002	4458	13.0	18.36	216.5
1.942	2	145.42	0.94	104.02	0.0001	4325	11.0	18.37	163.0
1.952	2	146.42	0.77	93.98	0.0005	4341	8.0	18.37	114.3
1.962	2	147.42	0.37	94.30	0.0003	7040	6.0	18.37	82.6
