Geotek MSCL 7.9 - TN336_TC19-22.raw created at 0:40:52 on 1/23/2016.


Core Depth	Section	Sect Depth	CTD 	Tr. Time 	PW Amp   	A Gamma  	Mag Sus  	Temp     	NC Res   
m		cm	mm	µsec		cps	SI x 10^-5	°C	mV

-0.639	before cal	-0.01	4.76	97.62	0.0009	13130	-2.0	17.55	4.9
-0.579	cal	5.99	3.00	96.95	0.0187	6702	-2.0	17.54	22.9
-0.519	cal	11.99	0.30	95.40	0.0424	6761	-1.0	17.55	25.6
-0.459	cal	17.99	0.89	95.94	0.0365	6766	-2.0	17.54	26.3
-0.399	cal	23.99	3.01	97.08	0.0205	6654	-2.0	17.56	34.3
-0.339	cal	29.99	4.94	97.77	0.0185	6566	-1.0	17.57	92.5
-0.279	cal	35.99	3.27	96.01	0.0184	6532	-2.0	17.58	612.7
-0.219	cal	41.99	0.83	94.56	0.0101	6700	-1.0	17.57	796.3
-0.159	cal	47.99	0.36	94.63	0.0250	6679	-1.0	17.58	789.5
-0.099	cal	53.99	2.59	95.72	0.0039	6612	-1.0	17.59	770.5
-0.039	cal	59.99	2.87	95.80	0.0074	6634	1.0	17.60	556.5
0.001	1	0.10	6.97	999.00	0.0000	9349	10.0	17.60	281.3
0.011	1	1.10	7.02	999.00	0.0000	5213	13.0	17.61	337.0
0.021	1	2.10	7.48	999.00	0.0000	5176	14.0	17.61	437.5
0.031	1	3.10	7.29	97.55	0.0004	5170	16.0	17.62	541.2
0.041	1	4.10	6.76	97.76	0.0005	5297	17.0	17.61	623.0
0.051	1	5.10	2.13	94.62	0.0024	5250	17.0	17.61	677.2
0.061	1	6.10	0.93	94.81	0.0187	5161	18.0	17.62	708.0
0.071	1	7.10	0.55	94.52	0.0056	5173	18.0	17.62	723.5
0.081	1	8.10	0.55	94.20	0.0132	5196	19.0	17.61	730.1
0.091	1	9.10	0.28	94.50	0.0262	5173	19.0	17.61	729.9
0.101	1	10.10	0.24	94.87	0.0248	5161	19.0	17.62	727.6
0.111	1	11.10	0.33	94.60	0.0198	5115	19.0	17.62	722.9
0.121	1	12.10	0.50	94.96	0.0289	5244	19.0	17.63	717.3
0.131	1	13.10	0.30	95.04	0.0172	5107	20.0	17.63	710.2
0.141	1	14.10	0.56	94.92	0.0136	5023	19.0	17.62	704.1
0.151	1	15.10	0.47	94.91	0.0196	5070	19.0	17.62	698.7
0.161	1	16.10	0.49	94.90	0.0291	4720	20.0	17.62	694.0
0.171	1	17.10	0.60	94.50	0.0109	4851	19.0	17.63	688.0
0.181	1	18.10	0.49	94.54	0.0119	5180	19.0	17.63	678.2
0.191	1	19.10	0.38	94.73	0.0221	5077	19.0	17.63	666.9
0.201	1	20.10	0.58	94.90	0.0288	4968	19.0	17.63	656.5
0.211	1	21.10	0.43	95.00	0.0275	4985	19.0	17.63	652.0
0.221	1	22.10	0.42	95.20	0.0250	5085	19.0	17.63	649.4
0.231	1	23.10	0.45	94.96	0.0271	5051	19.0	17.63	649.2
0.241	1	24.10	0.53	94.99	0.0290	4965	19.0	17.63	646.9
0.251	1	25.10	0.52	94.83	0.0219	4982	20.0	17.64	642.8
0.261	1	26.10	0.51	94.85	0.0436	4855	21.0	17.64	640.2
0.271	1	27.10	0.58	94.96	0.0383	4834	21.0	17.64	640.3
0.281	1	28.10	0.57	95.01	0.0305	4721	21.0	17.64	643.2
0.291	1	29.10	0.61	95.08	0.0308	4791	21.0	17.64	645.7
0.301	1	30.10	0.69	95.26	0.0347	4855	21.0	17.64	648.1
0.311	1	31.10	0.73	95.23	0.0324	4802	20.0	17.63	633.7
0.321	1	32.10	0.78	95.25	0.0283	4763	21.0	17.64	632.0
0.331	1	33.10	0.79	95.43	0.0338	4845	20.0	17.64	631.4
0.341	1	34.10	0.90	95.28	0.0197	4886	20.0	17.65	628.2
0.351	1	35.10	1.09	95.31	0.0207	4867	20.0	17.65	623.5
0.361	1	36.10	1.11	95.33	0.0438	4884	20.0	17.65	614.3
0.371	1	37.10	1.02	95.37	0.0395	4942	20.0	17.65	600.9
0.381	1	38.10	1.11	95.42	0.0244	4950	21.0	17.65	587.2
0.391	1	39.10	1.05	95.39	0.0189	4849	20.0	17.66	576.3
0.401	1	40.10	0.98	94.92	0.0236	4677	20.0	17.66	571.1
0.411	1	41.10	0.89	95.15	0.0424	4720	21.0	17.66	568.7
0.421	1	42.10	0.76	95.23	0.0299	4752	21.0	17.66	568.3
0.431	1	43.10	0.78	94.94	0.0331	4740	21.0	17.66	568.7
0.441	1	44.10	0.73	95.19	0.0367	4797	21.0	17.67	573.6
0.451	1	45.10	0.78	95.05	0.0224	4751	21.0	17.66	576.9
0.461	1	46.10	0.78	95.00	0.0357	4771	21.0	17.66	579.3
0.471	1	47.10	0.76	95.02	0.0360	4917	21.0	17.66	582.2
0.481	1	48.10	0.79	95.22	0.0321	4956	22.0	17.67	583.2
0.491	1	49.10	0.87	95.22	0.0255	5014	21.0	17.67	584.2
0.501	1	50.10	0.54	94.95	0.0525	5021	21.0	17.67	587.1
0.511	1	51.10	0.75	95.27	0.0399	5038	21.0	17.67	590.5
0.521	1	52.10	0.74	95.20	0.0291	5024	22.0	17.67	592.6
0.531	1	53.10	0.78	95.28	0.0330	4974	22.0	17.67	593.2
0.541	1	54.10	0.80	95.23	0.0273	4913	22.0	17.67	592.6
0.551	1	55.10	0.80	95.07	0.0397	5021	22.0	17.68	589.6
0.561	1	56.10	0.78	95.22	0.0454	4955	22.0	17.68	586.3
0.571	1	57.10	0.78	95.24	0.0260	4933	23.0	17.68	581.5
0.581	1	58.10	0.72	94.97	0.0146	4955	22.0	17.68	577.3
0.591	1	59.10	0.66	95.00	0.0140	4837	22.0	17.68	575.1
0.601	1	60.10	0.67	94.83	0.0274	4833	23.0	17.68	575.8
0.611	1	61.10	0.64	94.84	0.0244	4877	22.0	17.67	580.5
0.621	1	62.10	0.55	95.17	0.0117	4917	22.0	17.68	582.4
0.631	1	63.10	0.62	94.45	0.0107	4976	22.0	17.68	586.8
0.641	1	64.10	0.59	94.85	0.0150	4961	22.0	17.68	584.0
0.651	1	65.10	0.59	95.33	0.0101	5026	21.0	17.69	585.5
0.661	1	66.10	0.63	95.24	0.0092	5039	21.0	17.69	585.7
0.671	1	67.10	0.69	95.35	0.0130	5082	21.0	17.69	588.8
0.681	1	68.10	0.74	95.69	0.0179	4970	21.0	17.69	587.9
0.691	1	69.10	0.80	95.35	0.0210	5003	21.0	17.69	583.5
0.701	1	70.10	0.84	95.28	0.0207	4960	20.0	17.69	551.0
0.711	1	71.10	0.96	95.25	0.0417	4955	21.0	17.71	542.9
0.721	1	72.10	0.99	95.44	0.0321	4909	20.0	17.69	538.4
0.731	1	73.10	1.07	95.38	0.0363	4947	20.0	17.70	535.0
0.741	1	74.10	1.17	95.63	0.0505	4999	20.0	17.70	534.6
0.751	1	75.10	1.23	95.49	0.0472	4956	20.0	17.70	535.4
0.761	1	76.10	1.25	95.67	0.0335	5003	19.0	17.70	537.5
0.771	1	77.10	1.53	95.67	0.0229	4969	20.0	17.71	538.3
0.781	1	78.10	1.57	95.66	0.0201	5013	20.0	17.70	538.5
0.791	1	79.10	1.75	96.00	0.0039	4927	20.0	17.71	537.1
0.801	1	80.10	1.72	102.62	0.0080	4994	19.0	17.70	535.9
0.811	1	81.10	3.83	109.17	0.0004	5090	19.0	17.72	532.4
0.821	1	82.10	4.19	109.82	0.0021	5054	19.0	17.72	523.1
0.831	1	83.10	3.94	999.00	0.0000	4922	18.0	17.72	507.7
0.841	1	84.10	4.01	999.00	0.0000	4907	18.0	17.71	483.0
0.851	1	85.10	3.71	999.00	0.0000	4837	18.0	17.72	446.6
0.861	1	86.10	3.52	999.00	0.0000	4808	17.0	17.72	395.9
0.871	1	87.10	3.61	134.38	0.0000	4832	17.0	17.72	329.5
0.881	1	88.10	4.35	122.35	0.0003	4838	16.0	17.72	261.0
0.891	1	89.10	7.12	999.00	0.0000	5019	15.0	17.73	214.7
0.901	2	0.04	7.06	999.00	0.0000	10711	16.0	17.73	205.0
0.911	2	1.04	7.24	999.00	0.0000	5056	16.0	17.73	228.8
0.921	2	2.04	7.20	999.00	0.0000	4904	16.0	17.73	277.4
0.931	2	3.04	7.16	999.00	0.0000	4887	17.0	17.73	335.3
0.941	2	4.04	6.62	999.00	0.0000	4980	17.0	17.73	389.8
0.951	2	5.04	3.24	999.00	0.0000	4986	16.0	17.74	432.4
0.961	2	6.04	2.07	114.96	0.0001	5061	17.0	17.74	463.6
0.971	2	7.04	1.22	109.05	0.0003	5033	17.0	17.74	482.6
0.981	2	8.04	0.89	113.60	0.0002	4980	17.0	17.74	495.6
0.991	2	9.04	0.70	94.87	0.0037	4898	18.0	17.73	504.7
1.001	2	10.04	0.61	94.85	0.0218	4826	18.0	17.74	512.8
1.011	2	11.04	0.48	95.03	0.0714	4911	17.0	17.74	521.2
1.021	2	12.04	0.54	95.29	0.0723	4908	18.0	17.74	528.0
1.031	2	13.04	0.64	95.27	0.0806	4819	17.0	17.74	533.8
1.041	2	14.04	0.64	95.29	0.0654	4787	18.0	17.75	539.6
1.051	2	15.04	0.69	95.29	0.0504	4916	18.0	17.74	545.4
1.061	2	16.04	0.68	95.36	0.0413	4871	18.0	17.75	550.6
1.071	2	17.04	0.73	95.33	0.0552	4989	18.0	17.75	552.5
1.081	2	18.04	0.78	95.50	0.0586	4906	18.0	17.75	551.6
1.091	2	19.04	0.88	95.41	0.0549	4923	18.0	17.75	550.2
1.101	2	20.04	0.93	95.43	0.0598	4885	18.0	17.75	551.1
1.111	2	21.04	0.96	95.45	0.0481	4912	19.0	17.75	554.0
1.121	2	22.04	1.00	95.39	0.0520	4860	19.0	17.76	557.3
1.131	2	23.04	1.06	95.51	0.0525	4812	19.0	17.76	559.7
1.141	2	24.04	1.11	95.46	0.0546	4850	19.0	17.76	561.2
1.151	2	25.04	1.17	95.68	0.0477	4866	20.0	17.76	562.2
1.161	2	26.04	1.21	95.72	0.0370	4840	19.0	17.75	561.3
1.171	2	27.04	1.22	95.78	0.0401	4784	20.0	17.77	560.0
1.181	2	28.04	1.22	95.62	0.0527	4762	19.0	17.77	559.4
1.191	2	29.04	1.23	95.64	0.0455	4763	19.0	17.77	555.5
1.201	2	30.04	1.21	95.56	0.0396	4816	19.0	17.77	550.5
1.211	2	31.04	1.22	95.63	0.0486	4864	19.0	17.76	540.5
1.221	2	32.04	1.23	95.62	0.0519	4808	19.0	17.77	537.1
1.231	2	33.04	1.21	95.63	0.0524	4800	18.0	17.77	540.0
1.241	2	34.04	1.21	95.63	0.0486	4839	18.0	17.77	541.7
1.251	2	35.04	1.17	95.64	0.0427	4826	18.0	17.78	540.5
1.261	2	36.04	1.16	95.69	0.0333	4891	18.0	17.78	535.3
1.271	2	37.04	1.12	95.65	0.0372	4787	18.0	17.78	531.8
1.281	2	38.04	1.11	95.47	0.0462	4828	18.0	17.78	529.0
1.291	2	39.04	1.09	95.38	0.0445	4766	19.0	17.78	525.7
1.301	2	40.04	1.06	95.38	0.0504	4792	18.0	17.78	522.6
1.311	2	41.04	1.02	95.43	0.0402	4796	18.0	17.78	519.7
1.321	2	42.04	0.99	95.42	0.0396	4851	18.0	17.79	518.1
1.331	2	43.04	1.05	95.43	0.0497	4841	18.0	17.79	517.5
1.341	2	44.04	0.94	95.41	0.0431	4886	18.0	17.79	517.4
1.351	2	45.04	1.00	95.59	0.0518	4812	17.0	17.79	519.5
1.361	2	46.04	1.00	95.59	0.0421	4808	17.0	17.79	523.8
1.371	2	47.04	1.00	95.68	0.0391	4838	17.0	17.80	528.8
1.381	2	48.04	1.01	95.56	0.0549	4834	17.0	17.80	532.8
1.391	2	49.04	1.10	95.65	0.0624	4862	17.0	17.81	534.2
1.401	2	50.04	1.17	95.63	0.0504	4862	17.0	17.80	533.6
1.411	2	51.04	1.16	95.62	0.0765	4904	16.0	17.83	532.8
1.421	2	52.04	1.22	95.68	0.0625	4899	16.0	17.83	532.9
1.431	2	53.04	1.26	95.66	0.0547	4943	16.0	17.84	535.5
1.441	2	54.04	1.41	95.70	0.0511	4852	16.0	17.83	538.6
1.451	2	55.04	1.41	95.73	0.0488	4817	16.0	17.83	540.1
1.461	2	56.04	1.51	95.72	0.0368	4849	16.0	18.23	538.3
1.471	2	57.04	1.46	95.74	0.0389	4844	16.0	18.44	534.9
1.481	2	58.04	1.45	95.67	0.0521	4856	16.0	18.63	528.2
1.491	2	59.04	1.48	95.67	0.0484	4795	16.0	18.71	519.8
1.501	2	60.04	1.41	95.66	0.0499	4878	16.0	18.79	513.6
1.511	2	61.04	1.40	95.70	0.0393	4820	16.0	18.91	509.5
1.521	2	62.04	1.41	95.65	0.0472	4782	16.0	19.04	511.0
1.531	2	63.04	1.36	95.58	0.0412	4848	16.0	19.16	511.4
1.541	2	64.04	1.38	95.55	0.0625	4809	16.0	19.30	514.3
1.551	2	65.04	1.36	95.69	0.0469	4793	16.0	19.44	513.7
1.561	2	66.04	1.32	95.63	0.0371	4775	16.0	19.59	515.7
1.571	2	67.04	1.33	95.69	0.0513	4807	15.0	19.74	517.0
1.581	2	68.04	1.42	95.63	0.0571	4771	16.0	19.87	515.8
1.591	2	69.04	1.42	95.46	0.0540	4701	16.0	20.01	509.5
1.601	2	70.04	1.47	95.62	0.0564	4780	15.0	20.12	503.9
1.611	2	71.04	1.52	95.69	0.0526	4773	15.0	20.24	476.8
1.621	2	72.04	1.51	95.61	0.0652	4776	15.0	20.35	476.3
1.631	2	73.04	1.56	95.71	0.0618	4823	15.0	20.47	474.9
1.641	2	74.04	1.58	95.77	0.0668	4765	14.0	20.58	475.6
1.651	2	75.04	1.66	95.74	0.0545	4819	14.0	20.68	478.6
1.661	2	76.04	1.73	95.77	0.0362	4763	14.0	20.78	484.1
1.671	2	77.04	1.71	95.88	0.0511	4810	14.0	20.88	488.7
1.681	2	78.04	1.81	95.82	0.0407	4833	13.0	20.96	490.8
1.691	2	79.04	1.91	95.96	0.0326	4878	14.0	21.04	491.3
1.701	2	80.04	2.22	96.11	0.0422	4781	14.0	21.12	487.4
1.711	2	81.04	2.48	96.05	0.0043	4734	13.0	21.19	482.5
1.721	2	82.04	5.83	97.36	0.0017	4694	13.0	21.27	472.0
1.731	2	83.04	5.25	97.74	0.0006	4628	13.0	21.34	455.8
1.741	2	84.04	4.91	999.00	0.0000	4585	12.0	21.41	431.7
1.751	2	85.04	4.55	999.00	0.0000	4664	12.0	21.49	398.9
1.761	2	86.04	4.41	99.01	0.0003	4750	12.0	21.57	351.2
1.771	2	87.04	3.60	99.60	0.0001	4663	11.0	21.63	286.2
1.781	2	88.04	3.80	100.45	0.0002	4695	9.0	21.69	211.8
1.791	2	89.04	3.13	99.17	0.0009	4671	8.0	21.75	146.5
1.801	2	90.04	2.77	999.00	0.0000	9625	5.0	21.81	99.4
