Geotek MSCL 7.9 - TN336_TC10_10.raw created at 19:59:10 on 1/20/2016.


Core Depth	Section	Sect Depth	CTD 	Tr. Time 	PW Amp   	A Gamma  	Mag Sus  	Temp     	NC Res   
m		cm	mm	µsec		cps	SI x 10^-5	°C	mV

-0.639	before cal	-0.03	3.96	999.00	0.0000	13429	-1.0	20.22	8.3
-0.579	cal	5.97	3.56	97.14	0.0139	6580	-2.0	20.23	24.7
-0.519	cal	11.97	0.65	95.55	0.0713	6785	-1.0	20.26	28.2
-0.459	cal	17.97	1.12	96.07	0.0292	6764	-1.0	20.11	29.7
-0.399	cal	23.97	3.11	96.92	0.0198	6672	-2.0	20.00	36.1
-0.339	cal	29.97	5.59	98.09	0.0082	6606	-1.0	19.99	98.7
-0.279	cal	35.97	3.87	96.32	0.0170	6567	-1.0	20.00	643.8
-0.219	cal	41.97	0.85	94.83	0.0068	6650	-2.0	19.99	832.0
-0.159	cal	47.97	0.23	94.44	0.0222	6632	-2.0	19.99	819.8
-0.099	cal	53.97	2.24	95.70	0.0085	6632	0.0	19.98	802.8
-0.039	cal	59.97	2.82	95.69	0.0073	6517	3.0	19.98	594.3
0.001	1	0.10	8.59	999.00	0.0000	10752	11.0	19.98	275.7
0.011	1	1.10	8.81	999.00	0.0000	5449	14.0	19.98	335.5
0.021	1	2.10	8.64	999.00	0.0000	5244	17.0	19.98	439.5
0.031	1	3.10	7.95	98.69	0.0004	5184	18.0	19.97	546.3
0.041	1	4.10	7.22	98.51	0.0003	5220	19.0	19.98	623.8
0.051	1	5.10	2.15	95.37	0.0006	5123	20.0	19.98	675.5
0.061	1	6.10	1.02	94.91	0.0035	5271	21.0	19.97	708.0
0.071	1	7.10	0.68	94.66	0.0039	5278	20.0	19.97	722.6
0.081	1	8.10	0.29	95.16	0.0087	5243	21.0	19.97	729.1
0.091	1	9.10	0.30	95.29	0.0068	5339	21.0	19.97	735.2
0.101	1	10.10	0.34	95.28	0.0064	5250	21.0	19.96	739.6
0.111	1	11.10	0.29	95.25	0.0069	5237	21.0	19.97	743.8
0.121	1	12.10	0.34	95.30	0.0073	5262	21.0	19.97	745.5
0.131	1	13.10	0.39	95.34	0.0072	5236	21.0	19.96	745.6
0.141	1	14.10	0.34	95.40	0.0067	5095	21.0	19.97	745.8
0.151	1	15.10	0.44	95.36	0.0061	5119	21.0	19.97	748.0
0.161	1	16.10	0.46	95.42	0.0066	5266	20.0	19.96	746.3
0.171	1	17.10	0.43	95.63	0.0062	5225	20.0	19.95	744.3
0.181	1	18.10	0.46	95.62	0.0059	5259	20.0	19.95	741.6
0.191	1	19.10	0.49	95.55	0.0061	5287	20.0	19.95	740.7
0.201	1	20.10	0.50	95.35	0.0068	5244	21.0	19.95	740.2
0.211	1	21.10	0.60	95.42	0.0076	5196	21.0	19.95	737.6
0.221	1	22.10	0.56	95.43	0.0118	5180	21.0	19.96	733.2
0.231	1	23.10	0.58	95.53	0.0117	5118	21.0	19.95	727.0
0.241	1	24.10	0.64	95.63	0.0116	5046	21.0	19.95	716.6
0.251	1	25.10	0.75	95.67	0.0105	5099	21.0	19.95	704.2
0.261	1	26.10	0.80	95.67	0.0105	4970	21.0	19.95	694.1
0.271	1	27.10	0.79	95.59	0.0139	4926	21.0	19.94	691.6
0.281	1	28.10	0.84	95.47	0.0118	4981	21.0	19.94	687.5
0.291	1	29.10	0.90	95.38	0.0127	4994	21.0	19.95	691.6
0.301	1	30.10	0.86	95.34	0.0115	4949	22.0	19.95	690.3
0.311	1	31.10	0.96	95.70	0.0082	4967	22.0	19.95	661.9
0.321	1	32.10	1.02	95.73	0.0063	4921	21.0	19.95	642.4
0.331	1	33.10	1.10	95.72	0.0046	4980	20.0	19.95	634.9
0.341	1	34.10	1.06	95.78	0.0066	4990	21.0	19.95	631.4
0.351	1	35.10	1.11	95.80	0.0043	4979	20.0	19.95	629.9
0.361	1	36.10	1.12	95.87	0.0076	4981	21.0	19.95	602.9
0.371	1	37.10	1.16	96.08	0.0092	4990	20.0	19.95	600.4
0.381	1	38.10	1.15	96.15	0.0090	4892	20.0	19.95	603.5
0.391	1	39.10	1.20	96.07	0.0079	4938	20.0	19.94	604.7
0.401	1	40.10	1.15	96.06	0.0083	4955	20.0	19.95	605.0
0.411	1	41.10	1.10	96.01	0.0100	4994	20.0	19.95	608.5
0.421	1	42.10	1.39	96.12	0.0076	4967	20.0	19.94	608.6
0.431	1	43.10	2.14	96.19	0.0076	4891	20.0	19.95	589.2
0.441	1	44.10	2.31	96.16	0.0115	4849	20.0	19.94	582.6
0.451	1	45.10	2.19	96.04	0.0172	4873	19.0	19.94	578.6
0.461	1	46.10	2.13	95.94	0.0172	4877	19.0	19.94	581.5
0.471	1	47.10	2.50	96.38	0.0101	4870	19.0	19.94	587.1
0.481	1	48.10	3.72	96.74	0.0074	4890	19.0	19.94	586.7
0.491	1	49.10	3.73	97.25	0.0060	4858	18.0	19.93	583.0
0.501	1	50.10	3.92	96.14	0.0006	4958	18.0	19.95	567.0
0.511	1	51.10	3.88	97.01	0.0034	5181	19.0	19.95	537.4
0.521	1	52.10	4.01	97.23	0.0017	4897	18.0	19.94	485.4
0.531	1	53.10	4.37	96.99	0.0068	4838	18.0	19.93	408.2
0.541	1	54.10	4.54	97.49	0.0127	4869	18.0	19.94	312.6
0.551	1	55.10	6.59	104.94	0.0001	4904	17.0	19.94	236.8
0.561	1	56.10	8.12	999.00	0.0000	8413	17.0	19.94	210.1
0.571	2	0.60	8.32	999.00	0.0000	5947	18.0	19.94	230.4
0.581	2	1.60	7.80	999.00	0.0000	4907	18.0	19.94	291.2
0.591	2	2.60	7.47	999.00	0.0000	4911	19.0	19.95	361.2
0.601	2	3.60	6.67	999.00	0.0000	4929	19.0	19.94	427.1
0.611	2	4.60	4.20	999.00	0.0000	4931	19.0	19.94	482.6
0.621	2	5.60	1.83	999.00	0.0000	4913	19.0	19.94	516.4
0.631	2	6.60	1.10	999.00	0.0000	4960	19.0	19.94	538.0
0.641	2	7.60	1.02	124.35	0.0001	5017	18.0	19.94	551.7
0.651	2	8.60	0.91	98.09	0.0002	4935	19.0	19.95	559.2
0.661	2	9.60	0.69	99.08	0.0002	4878	18.0	19.94	565.1
0.671	2	10.60	0.31	106.07	0.0002	4867	18.0	19.94	565.8
0.681	2	11.60	0.30	94.12	0.0005	4938	18.0	19.94	569.0
0.691	2	12.60	0.32	94.34	0.0014	5002	18.0	19.94	572.1
0.701	2	13.60	0.26	101.10	0.0007	4984	18.0	19.93	574.8
0.711	2	14.60	0.25	98.32	0.0006	4925	18.0	19.95	577.7
0.721	2	15.60	0.25	98.73	0.0009	4976	18.0	19.95	580.9
0.731	2	16.60	0.28	94.33	0.0023	4909	18.0	19.94	584.8
0.741	2	17.60	0.18	94.86	0.0037	4998	18.0	19.94	591.8
0.751	2	18.60	0.23	94.81	0.0084	5019	17.0	19.94	597.5
0.761	2	19.60	0.29	95.26	0.0159	4977	18.0	19.93	600.4
0.771	2	20.60	0.24	95.30	0.0143	4970	18.0	19.94	601.9
0.781	2	21.60	0.27	95.31	0.0159	4991	18.0	19.93	598.0
0.791	2	22.60	0.38	95.38	0.0166	4935	17.0	19.93	595.4
0.801	2	23.60	0.38	95.39	0.0144	4867	18.0	19.93	594.0
0.811	2	24.60	0.38	95.37	0.0124	4893	18.0	19.93	594.8
0.821	2	25.60	0.42	95.36	0.0127	4842	19.0	19.93	595.9
0.831	2	26.60	0.54	95.32	0.0130	4744	18.0	19.93	596.1
0.841	2	27.60	0.58	95.26	0.0128	4843	19.0	19.93	594.2
0.851	2	28.60	0.58	95.30	0.0116	4881	19.0	19.93	591.6
0.861	2	29.60	0.69	95.28	0.0114	4780	19.0	19.94	585.9
0.871	2	30.60	0.68	95.23	0.0125	4789	19.0	19.94	580.7
0.881	2	31.60	0.68	95.34	0.0143	4752	19.0	19.94	574.1
0.891	2	32.60	0.69	95.39	0.0116	4778	19.0	19.94	571.1
0.901	2	33.60	0.71	95.36	0.0145	4786	19.0	19.94	566.0
0.911	2	34.60	0.76	95.63	0.0093	4835	18.0	19.94	556.7
0.921	2	35.60	0.73	95.65	0.0079	4895	18.0	19.94	547.4
0.931	2	36.60	0.69	95.67	0.0078	4798	19.0	19.94	537.8
0.941	2	37.60	0.73	95.77	0.0068	4862	18.0	19.94	529.7
0.951	2	38.60	0.80	95.76	0.0065	4850	18.0	19.94	520.5
0.961	2	39.60	0.80	95.64	0.0073	4669	18.0	19.94	514.9
0.971	2	40.60	0.78	95.58	0.0078	4719	18.0	19.93	509.0
0.981	2	41.60	0.79	95.46	0.0087	4789	17.0	19.93	504.3
0.991	2	42.60	0.81	95.61	0.0081	4748	18.0	19.94	505.1
1.001	2	43.60	0.76	95.42	0.0078	4760	17.0	19.93	504.5
1.011	2	44.60	0.70	95.29	0.0077	4756	17.0	19.94	507.5
1.021	2	45.60	0.76	95.32	0.0081	4773	16.0	19.95	509.2
1.031	2	46.60	0.72	95.49	0.0080	4744	16.0	19.94	512.1
1.041	2	47.60	0.71	95.39	0.0077	4857	15.0	19.94	516.3
1.051	2	48.60	0.90	95.54	0.0096	4878	14.0	19.94	521.0
1.061	2	49.60	0.99	95.67	0.0086	4886	14.0	19.95	524.5
1.071	2	50.60	1.03	95.64	0.0102	4885	14.0	19.94	528.9
1.081	2	51.60	1.14	95.73	0.0126	4851	14.0	19.94	528.3
1.091	2	52.60	1.24	95.77	0.0127	4867	13.0	19.93	527.7
1.101	2	53.60	1.41	95.81	0.0137	4845	13.0	19.94	527.0
1.111	2	54.60	1.51	95.77	0.0121	4910	13.0	19.94	526.8
1.121	2	55.60	1.55	95.73	0.0126	4909	14.0	19.95	522.4
1.131	2	56.60	1.62	95.67	0.0157	4857	13.0	19.94	522.4
1.141	2	57.60	1.55	95.64	0.0153	4878	13.0	19.94	519.5
1.151	2	58.60	1.40	95.33	0.0227	4685	12.0	19.94	518.2
1.161	2	59.60	1.35	95.03	0.0186	4564	13.0	19.94	510.2
1.171	2	60.60	1.25	95.24	0.0157	4907	12.0	19.94	507.7
1.181	2	61.60	1.20	95.53	0.0210	4954	12.0	19.94	506.5
1.191	2	62.60	1.19	95.32	0.0165	4635	12.0	19.94	503.7
1.201	2	63.60	1.12	95.24	0.0133	4880	12.0	19.95	501.3
1.211	2	64.60	1.07	95.57	0.0205	4923	12.0	19.94	498.6
1.221	2	65.60	0.97	95.59	0.0176	4942	12.0	19.94	493.2
1.231	2	66.60	0.97	95.55	0.0159	4983	11.0	19.95	488.8
1.241	2	67.60	0.87	95.44	0.0165	4979	12.0	19.95	483.1
1.251	2	68.60	0.86	95.47	0.0129	4973	12.0	19.96	476.9
1.261	2	69.60	0.77	95.45	0.0129	4916	13.0	19.94	472.1
1.271	2	70.60	0.77	95.35	0.0118	4687	14.0	19.94	466.3
1.281	2	71.60	0.72	95.00	0.0115	4558	15.0	19.94	464.0
1.291	2	72.60	0.77	94.87	0.0115	4427	14.0	19.94	459.5
1.301	2	73.60	0.57	94.51	0.0095	4458	15.0	19.95	448.1
1.311	2	74.60	0.58	94.51	0.0109	4414	15.0	19.95	441.0
1.321	2	75.60	0.53	94.44	0.0105	4342	15.0	19.94	432.5
1.331	2	76.60	0.47	94.30	0.0089	4397	16.0	19.95	427.4
1.341	2	77.60	0.43	94.36	0.0104	4327	17.0	19.94	423.2
1.351	2	78.60	0.38	94.16	0.0090	4259	17.0	19.94	420.6
1.361	2	79.60	0.37	94.02	0.0089	4281	17.0	19.95	418.1
1.371	2	80.60	0.40	93.86	0.0078	4231	18.0	19.94	417.0
1.381	2	81.60	0.34	93.77	0.0079	4146	19.0	19.95	419.5
1.391	2	82.60	0.29	93.72	0.0070	4247	19.0	19.94	419.5
1.401	2	83.60	0.31	93.70	0.0074	4151	19.0	19.95	416.6
1.411	2	84.60	0.28	93.74	0.0073	4270	20.0	19.95	415.6
1.421	2	85.60	0.31	93.76	0.0083	4162	20.0	19.95	414.9
1.431	2	86.60	0.35	93.57	0.0062	4139	21.0	19.95	414.7
1.441	2	87.60	0.33	93.36	0.0073	4211	22.0	19.95	410.8
1.451	2	88.60	0.74	93.75	0.0069	4179	22.0	19.95	411.4
1.461	2	89.60	0.36	93.75	0.0078	4151	22.0	19.95	410.0
1.471	2	90.60	0.64	93.67	0.0058	4076	22.0	19.95	407.4
1.481	2	91.60	0.69	93.72	0.0060	4206	22.0	19.96	405.0
1.491	2	92.60	0.68	93.82	0.0063	4166	22.0	19.95	403.9
1.501	2	93.60	0.63	93.68	0.0061	4124	22.0	19.95	401.5
1.511	2	94.60	0.68	93.66	0.0061	4113	22.0	19.96	401.1
1.521	2	95.60	0.68	93.46	0.0052	4030	22.0	19.96	401.5
1.531	2	96.60	0.35	93.30	0.0047	4000	23.0	19.95	401.6
1.541	2	97.60	0.47	93.02	0.0036	3981	23.0	19.96	400.7
1.551	2	98.60	0.35	92.93	0.0033	3990	24.0	19.96	400.3
1.561	2	99.60	0.31	93.04	0.0030	4019	23.0	19.96	397.2
1.571	2	100.60	0.40	93.38	0.0032	4139	24.0	19.96	397.6
1.581	2	101.60	0.40	93.49	0.0032	4107	24.0	19.96	395.9
1.591	2	102.60	0.44	93.41	0.0027	4079	23.0	19.96	397.2
1.601	2	103.60	0.50	93.62	0.0032	4131	23.0	19.96	399.5
1.611	2	104.60	0.43	93.64	0.0039	4126	22.0	19.95	402.1
1.621	2	105.60	0.55	93.78	0.0039	4160	22.0	19.96	404.3
1.631	2	106.60	0.60	93.72	0.0036	4148	22.0	19.96	405.8
1.641	2	107.60	0.54	93.86	0.0037	4207	22.0	19.97	407.0
1.651	2	108.60	0.75	94.09	0.0040	4191	22.0	19.97	409.8
1.661	2	109.60	0.71	94.04	0.0033	4053	21.0	19.63	413.5
1.671	2	110.60	0.69	93.75	0.0021	3962	20.0	19.05	418.5
1.681	2	111.60	0.86	93.73	0.0024	4141	19.0	18.94	421.7
1.691	2	112.60	0.84	93.75	0.0019	3996	18.0	19.12	427.9
1.701	2	113.60	0.74	93.76	0.0018	4311	18.0	19.41	426.8
1.711	2	114.60	0.91	94.46	0.0036	4295	17.0	19.66	428.7
1.721	2	115.60	0.90	94.65	0.0030	4375	17.0	19.88	411.6
1.731	2	116.60	0.83	94.84	0.0034	4388	16.0	20.08	409.9
1.741	2	117.60	0.99	94.86	0.0029	4338	15.0	20.21	407.1
1.751	2	118.60	0.98	94.71	0.0032	4330	15.0	20.31	405.3
1.761	2	119.60	1.17	94.84	0.0027	4377	14.0	20.41	404.3
1.771	2	120.60	1.13	94.95	0.0022	4307	14.0	20.50	406.2
1.781	2	121.60	1.29	94.96	0.0022	4287	13.0	20.59	406.3
1.791	2	122.60	1.42	95.04	0.0025	4356	13.0	20.65	408.0
1.801	2	123.60	1.51	95.07	0.0034	4401	13.0	20.73	409.6
1.811	2	124.60	1.77	94.82	0.0016	4181	12.0	20.80	407.3
1.821	2	125.60	2.06	94.86	0.0022	4439	12.0	20.87	404.2
1.831	2	126.60	4.24	96.38	0.0007	4480	12.0	20.93	399.1
1.841	2	127.60	4.47	96.41	0.0007	4446	12.0	20.96	387.4
1.851	2	128.60	4.83	999.00	0.0000	4342	11.0	21.01	372.1
1.861	2	129.60	4.79	96.16	0.0004	4268	11.0	21.05	348.6
1.871	2	130.60	4.78	96.11	0.0015	4305	11.0	21.10	311.1
1.881	2	131.60	4.65	95.76	0.0018	4569	10.0	21.12	258.2
1.891	2	132.60	4.96	96.88	0.0003	4888	9.0	21.15	191.0
1.901	2	133.60	3.94	99.23	0.0001	4866	8.0	21.16	128.9
1.911	2	134.60	3.46	999.00	0.0000	6229	6.0	21.19	88.6
