Geotek MSCL 7.9 - TN336_BB3-03.raw created at 13:23:20 on 1/19/2016.


Core Depth	Section	Sect Depth	CTD 	Tr. Time 	PW Amp   	A Gamma  	Mag Sus  	Temp     	NC Res   
m		cm	mm	µsec		cps	SI x 10^-5	°C	mV

-0.640	before cal	-0.01	3.94	96.52	0.0111	13482	-1.0	20.61	4.8
-0.580	cal	5.99	2.90	95.94	0.0199	6636	-2.0	20.61	39.8
-0.520	cal	11.99	0.93	95.54	0.0428	6665	-1.0	20.61	40.4
-0.460	cal	17.99	1.24	95.85	0.0283	6826	-1.0	20.61	41.9
-0.400	cal	23.99	3.93	96.88	0.0018	6677	-1.0	20.60	51.6
-0.340	cal	29.99	4.90	97.68	0.0099	6639	-1.0	20.60	102.9
-0.280	cal	35.99	4.49	96.47	0.0095	6694	-1.0	20.61	630.5
-0.220	cal	41.99	1.15	94.48	0.0068	6642	-1.0	20.60	814.2
-0.160	cal	47.99	1.14	94.83	0.0339	6730	-1.0	20.60	798.6
-0.100	cal	53.99	3.06	96.05	0.0023	6726	-1.0	20.61	782.3
-0.040	cal	59.99	3.15	95.90	0.0012	6641	2.0	20.61	568.5
0.000	cal	63.99	7.37	999.00	0.0000	9132	14.0	20.63	257.9
0.010	1	1.00	7.36	999.00	0.0000	4941	17.0	20.62	310.6
0.020	1	2.00	7.95	999.00	0.0000	4893	20.0	20.63	402.3
0.030	1	3.00	7.59	97.96	0.0001	4889	21.0	20.62	491.0
0.040	1	4.00	7.22	97.79	0.0005	4907	23.0	20.62	552.9
0.050	1	5.00	1.77	94.14	0.0011	4858	24.0	20.62	589.4
0.060	1	6.00	0.95	94.42	0.0076	4901	25.0	20.62	604.8
0.070	1	7.00	0.95	94.26	0.0032	4786	25.0	20.62	613.1
0.080	1	8.00	0.89	94.52	0.0047	4804	27.0	20.62	614.2
0.090	1	9.00	0.84	94.33	0.0025	4775	27.0	20.62	611.3
0.100	1	10.00	0.85	94.60	0.0026	4665	28.0	20.62	609.0
0.110	1	11.00	0.73	94.13	0.0041	4712	28.0	20.62	606.1
0.120	1	12.00	0.68	94.24	0.0056	4624	29.0	20.62	601.1
0.130	1	13.00	0.67	94.42	0.0071	4596	29.0	20.63	599.3
0.140	1	14.00	0.70	94.51	0.0062	4571	30.0	20.63	598.5
0.150	1	15.00	0.70	94.62	0.0069	4641	30.0	20.63	598.8
0.160	1	16.00	0.79	94.86	0.0063	4731	30.0	20.63	599.4
0.170	1	17.00	0.76	94.98	0.0051	4716	30.0	20.63	616.5
0.180	1	18.00	0.75	94.78	0.0055	4672	30.0	20.63	619.5
0.190	1	19.00	0.75	94.59	0.0058	4639	30.0	20.62	614.3
0.200	1	20.00	0.80	94.69	0.0054	4578	30.0	20.63	603.4
0.210	1	21.00	0.80	94.68	0.0058	4643	30.0	20.63	610.3
0.220	1	22.00	0.79	94.66	0.0071	4678	30.0	20.62	617.3
0.230	1	23.00	0.77	94.85	0.0085	4685	30.0	20.63	624.6
0.240	1	24.00	0.80	94.87	0.0125	4662	29.0	20.63	630.3
0.250	1	25.00	0.79	94.90	0.0085	4673	28.0	20.63	635.4
0.260	1	26.00	0.81	94.92	0.0097	4702	28.0	20.63	640.7
0.270	1	27.00	0.82	95.16	0.0134	4730	27.0	20.63	641.3
0.280	1	28.00	0.86	95.16	0.0125	4752	27.0	20.63	641.3
0.290	1	29.00	0.90	94.86	0.0148	4711	26.0	20.63	643.0
0.300	1	30.00	1.58	95.02	0.0282	4832	26.0	20.63	637.7
0.310	1	31.00	3.79	96.54	0.0077	4769	26.0	20.63	600.3
0.320	1	32.00	3.27	96.67	0.0025	4780	25.0	20.63	586.5
0.330	1	33.00	3.53	96.87	0.0001	4660	25.0	20.64	571.4
0.340	1	34.00	3.57	96.06	0.0033	4719	24.0	20.63	542.1
0.350	1	35.00	3.58	95.97	0.0028	4723	24.0	20.64	499.6
0.360	1	36.00	3.26	95.71	0.0050	4698	24.0	20.64	436.8
0.370	1	37.00	3.03	95.63	0.0111	4624	22.0	20.64	358.7
0.380	1	38.00	5.32	96.87	0.0081	4610	21.0	20.64	281.9
0.390	1	39.00	7.25	97.15	0.0012	4715	21.0	20.65	232.2
0.400	2	0.27	7.19	102.19	0.0001	7067	20.0	20.65	227.5
0.410	2	1.27	6.96	999.00	0.0000	4659	20.0	20.65	275.4
0.420	2	2.27	6.94	97.62	0.0028	4638	20.0	20.64	361.8
0.430	2	3.27	6.47	98.03	0.0009	4627	21.0	20.65	449.7
0.440	2	4.27	5.86	98.42	0.0001	4689	21.0	20.66	513.8
0.450	2	5.27	2.58	95.47	0.0018	4700	21.0	20.65	550.2
0.460	2	6.27	2.10	95.63	0.0064	4764	21.0	20.65	566.4
0.470	2	7.27	1.19	95.32	0.0063	4739	20.0	20.65	571.5
0.480	2	8.27	1.15	95.24	0.0047	4693	21.0	20.65	572.8
0.490	2	9.27	0.99	95.06	0.0037	4690	20.0	20.65	573.1
0.500	2	10.27	0.90	95.21	0.0063	4676	20.0	20.65	574.8
0.510	2	11.27	0.90	95.24	0.0060	4642	20.0	20.65	574.5
0.520	2	12.27	0.85	95.24	0.0061	4653	0.0	20.65	569.3
0.530	2	13.27	0.86	95.25	0.0065	4706	19.0	20.65	562.0
0.540	2	14.27	0.86	95.29	0.0057	4748	18.0	20.64	554.4
0.550	2	15.27	0.95	95.45	0.0043	4717	19.0	20.65	548.2
0.560	2	16.27	0.95	95.30	0.0060	4730	18.0	20.66	543.7
0.570	2	17.27	0.98	95.28	0.0063	4723	19.0	20.65	539.9
0.580	2	18.27	0.99	95.27	0.0068	4641	19.0	20.65	539.1
0.590	2	19.27	1.10	95.27	0.0067	4694	19.0	20.66	540.6
0.600	2	20.27	1.15	95.19	0.0060	4543	18.0	20.66	542.7
0.610	2	21.27	1.21	94.95	0.0057	4441	18.0	20.66	545.0
0.620	2	22.27	1.20	94.90	0.0046	4401	18.0	20.66	546.5
0.630	2	23.27	1.30	94.73	0.0040	4364	17.0	20.66	545.8
0.640	2	24.27	1.30	94.70	0.0040	4346	16.0	20.66	544.4
0.650	2	25.27	1.35	94.87	0.0045	4429	16.0	20.66	545.2
0.660	2	26.27	1.36	94.99	0.0051	4561	15.0	20.67	545.7
0.670	2	27.27	1.35	95.22	0.0054	4567	15.0	20.66	544.8
0.680	2	28.27	1.40	95.18	0.0042	4539	14.0	20.67	541.6
0.690	2	29.27	1.45	95.04	0.0056	4520	14.0	20.67	539.1
0.700	2	30.27	1.45	94.99	0.0068	4442	14.0	20.67	533.1
0.710	2	31.27	1.48	95.05	0.0062	4449	14.0	20.67	520.3
0.720	2	32.27	1.50	95.24	0.0062	4435	14.0	20.67	512.5
0.730	2	33.27	1.50	95.22	0.0052	4385	14.0	20.67	506.3
0.740	2	34.27	1.55	95.10	0.0052	4440	14.0	20.67	498.9
0.750	2	35.27	1.50	94.89	0.0048	4338	14.0	20.67	493.3
0.760	2	36.27	1.50	94.54	0.0028	4157	14.0	20.67	487.3
0.770	2	37.27	1.55	94.05	0.0027	4130	15.0	20.67	478.9
0.780	2	38.27	1.51	94.04	0.0030	4103	15.0	20.67	471.6
0.790	2	39.27	1.56	94.08	0.0028	4127	15.0	20.67	466.0
0.800	2	40.27	1.56	94.21	0.0030	4178	16.0	20.67	460.1
0.810	2	41.27	1.56	94.16	0.0025	4111	16.0	20.68	452.7
0.820	2	42.27	1.57	94.14	0.0023	4096	16.0	20.68	444.4
0.830	2	43.27	1.58	94.09	0.0025	4102	16.0	20.68	436.2
0.840	2	44.27	1.60	94.09	0.0020	4109	16.0	20.69	430.8
0.850	2	45.27	1.57	93.82	0.0027	4068	17.0	20.68	428.8
0.860	2	46.27	1.56	93.74	0.0023	3996	17.0	20.69	429.5
0.870	2	47.27	1.55	93.41	0.0013	3938	17.0	20.69	430.4
0.880	2	48.27	1.57	93.57	0.0013	3992	17.0	20.69	432.7
0.890	2	49.27	1.55	93.69	0.0011	3956	17.0	20.69	436.4
0.900	2	50.27	1.54	93.49	0.0009	4034	18.0	20.69	440.6
0.910	2	51.27	1.54	93.84	0.0014	4137	18.0	20.69	442.3
0.920	2	52.27	1.41	94.27	0.0015	4134	18.0	20.68	444.4
0.930	2	53.27	1.53	94.45	0.0014	4092	19.0	20.69	446.2
0.940	2	54.27	1.60	94.33	0.0011	4102	19.0	20.69	446.3
0.950	2	55.27	1.75	94.31	0.0015	4129	20.0	20.69	447.8
0.960	2	56.27	1.80	94.35	0.0013	4127	20.0	20.69	447.3
0.970	2	57.27	1.79	94.53	0.0019	4188	21.0	20.70	450.6
0.980	2	58.27	1.83	94.58	0.0022	4105	21.0	20.69	452.0
0.990	2	59.27	1.80	94.23	0.0017	4078	21.0	20.70	451.4
1.000	2	60.27	1.75	93.83	0.0015	4038	22.0	20.70	450.4
1.010	2	61.27	1.70	93.87	0.0022	4087	22.0	20.69	446.8
1.020	2	62.27	1.70	94.10	0.0017	4159	22.0	20.70	444.2
1.030	2	63.27	1.66	94.20	0.0017	4092	22.0	20.71	441.7
1.040	2	64.27	1.56	94.07	0.0011	4032	24.0	20.70	438.6
1.050	2	65.27	1.55	94.22	0.0010	4191	24.0	20.71	433.8
1.060	2	66.27	1.50	94.20	0.0019	4140	25.0	20.70	429.3
1.070	2	67.27	1.50	94.12	0.0016	4121	25.0	20.71	425.5
1.080	2	68.27	1.40	94.14	0.0014	4132	26.0	20.70	423.1
1.090	2	69.27	1.41	93.84	0.0019	4079	25.0	20.71	423.3
1.100	2	70.27	1.31	93.64	0.0016	3961	25.0	20.71	422.5
1.110	2	71.27	1.29	93.35	0.0016	4022	25.0	20.71	418.6
1.120	2	72.27	1.29	93.26	0.0020	4123	25.0	20.71	411.4
1.130	2	73.27	1.29	93.21	0.0019	4107	24.0	20.71	406.1
1.140	2	74.27	1.24	92.88	0.0017	3902	25.0	20.71	400.9
1.150	2	75.27	1.30	91.80	0.0012	3836	25.0	20.72	396.8
1.160	2	76.27	1.24	91.74	0.0020	3897	25.0	20.71	395.9
1.170	2	77.27	1.20	91.65	0.0021	3864	25.0	20.71	394.4
1.180	2	78.27	1.20	91.46	0.0021	3875	24.0	20.72	395.3
1.190	2	79.27	1.22	91.99	0.0035	3939	24.0	20.72	396.9
1.200	2	80.27	1.17	92.19	0.0029	3900	25.0	20.71	396.4
1.210	2	81.27	1.22	92.18	0.0031	3942	24.0	20.72	395.9
1.220	2	82.27	1.32	92.58	0.0024	4066	25.0	20.72	393.1
1.230	2	83.27	1.37	93.15	0.0032	4021	24.0	20.72	391.3
1.240	2	84.27	1.34	93.07	0.0041	4018	24.0	20.72	394.6
1.250	2	85.27	1.33	92.68	0.0059	3911	24.0	20.71	397.5
1.260	2	86.27	1.32	92.18	0.0037	3807	24.0	20.72	399.1
1.270	2	87.27	1.27	91.72	0.0028	3813	24.0	20.71	400.4
1.280	2	88.27	1.15	91.26	0.0026	3791	24.0	20.72	399.1
1.290	2	89.27	1.21	91.21	0.0032	3840	24.0	20.72	398.2
1.300	2	90.27	1.15	91.55	0.0032	3844	24.0	20.73	399.1
1.310	2	91.27	1.12	91.70	0.0031	3863	24.0	20.73	397.9
1.320	2	92.27	1.16	91.68	0.0030	3860	24.0	20.73	399.8
1.330	2	93.27	1.20	91.64	0.0026	3839	24.0	20.73	399.8
1.340	2	94.27	1.15	91.56	0.0023	3870	24.0	20.73	401.4
1.350	2	95.27	1.26	91.78	0.0023	3904	25.0	20.74	398.6
1.360	2	96.27	1.30	92.01	0.0020	3958	25.0	20.73	396.5
1.370	2	97.27	1.28	92.06	0.0037	3963	24.0	20.75	395.5
1.380	2	98.27	1.35	92.19	0.0054	3921	26.0	20.74	396.0
1.390	2	99.27	1.40	92.39	0.0050	3906	27.0	20.75	397.5
1.400	2	100.27	1.45	92.08	0.0049	3913	27.0	20.75	398.8
1.410	2	101.27	1.40	92.04	0.0067	3862	28.0	20.75	397.2
1.420	2	102.27	1.44	91.38	0.0041	3815	28.0	20.75	394.2
1.430	2	103.27	1.44	91.35	0.0040	3821	29.0	20.75	391.9
1.440	2	104.27	1.44	91.64	0.0042	3834	28.0	20.75	388.9
1.450	2	105.27	1.45	91.78	0.0043	3855	29.0	20.75	387.6
1.460	2	106.27	1.54	91.83	0.0033	3802	29.0	20.75	387.5
1.470	2	107.27	1.55	91.61	0.0034	3748	29.0	20.75	385.6
1.480	2	108.27	1.50	91.63	0.0032	3841	29.0	20.75	385.6
1.490	2	109.27	1.50	91.74	0.0044	3843	30.0	20.75	386.0
1.500	2	110.27	1.49	92.02	0.0031	3879	30.0	20.75	387.4
1.510	2	111.27	1.54	92.03	0.0021	3900	29.0	20.75	386.6
1.520	2	112.27	1.59	92.10	0.0014	3878	30.0	20.77	385.5
1.530	2	113.27	1.53	92.12	0.0020	3987	30.0	21.41	384.5
1.540	2	114.27	1.59	92.30	0.0023	3923	30.0	21.67	386.4
1.550	2	115.27	1.59	92.06	0.0020	3848	30.0	20.50	385.9
1.560	2	116.27	1.42	91.63	0.0010	3821	31.0	19.85	377.8
1.570	2	117.27	1.52	92.14	0.0014	3980	30.0	19.45	357.2
1.580	2	118.27	1.51	92.71	0.0025	3947	30.0	19.20	355.5
1.590	2	119.27	1.52	92.83	0.0022	3965	30.0	19.06	354.0
1.600	2	120.27	1.59	92.67	0.0016	3938	30.0	18.95	353.9
1.610	2	121.27	1.63	92.67	0.0016	3908	30.0	18.82	353.8
1.620	2	122.27	1.57	92.50	0.0020	3917	30.0	18.68	353.9
1.630	2	123.27	1.73	92.41	0.0029	3927	30.0	18.47	354.2
1.640	2	124.27	1.72	92.51	0.0027	3919	30.0	18.32	352.5
1.650	2	125.27	1.77	92.43	0.0025	3963	30.0	18.19	352.1
1.660	2	126.27	2.23	92.99	0.0026	3896	30.0	18.07	353.0
1.670	2	127.27	2.34	93.18	0.0021	3935	29.0	17.95	352.0
1.680	2	128.27	5.94	94.11	0.0005	3879	29.0	17.85	349.5
1.690	2	129.27	5.58	94.26	0.0003	3952	29.0	17.72	344.3
1.700	2	130.27	5.12	999.00	0.0000	3819	28.0	17.61	335.5
1.710	2	131.27	4.83	93.15	0.0015	3788	27.0	17.54	321.1
1.720	2	132.27	4.76	93.72	0.0050	3816	25.0	17.48	297.4
1.730	2	133.27	4.28	93.27	0.0026	3864	23.0	17.45	258.3
1.740	2	134.27	4.32	93.35	0.0060	3881	21.0	17.36	202.3
1.750	2	135.27	3.82	92.98	0.0260	3826	18.0	17.29	142.1
1.760	2	136.27	3.42	93.16	0.0133	4149	13.0	17.27	99.1
