Geotek MSCL 7.9 - TN336_JPC4-04.raw created at 5:13:06 on 1/20/2016.


Core Depth	Section	Sect Depth	CTD 	Tr. Time 	PW Amp   	A Gamma  	Mag Sus  	Temp     	NC Res   
m		cm	mm	µsec		cps	SI x 10^-5	°C	mV

-0.640	cal	0.02	1.47	97.16	0.0122	1985	-1.0	21.01	4.4
-0.580	cal	6.02	0.75	97.10	0.0102	1956	-1.0	21.00	25.3
-0.520	cal	12.02	-2.33	95.38	0.0333	1919	-2.0	21.00	27.7
-0.460	cal	18.02	-1.95	95.68	0.0186	1952	-2.0	21.00	28.8
-0.400	cal	24.02	0.77	97.81	0.0005	1874	-2.0	21.01	36.9
-0.340	cal	30.02	2.25	97.67	0.0087	1997	-2.0	21.01	95.8
-0.280	cal	36.02	1.69	96.53	0.0082	1924	-1.0	21.01	614.0
-0.220	cal	42.02	-1.74	94.67	0.0058	1974	-2.0	21.02	809.7
-0.160	cal	48.02	-2.23	94.57	0.0381	1967	-1.0	21.02	802.4
-0.100	cal	54.02	-0.33	95.95	0.0078	1994	-2.0	21.02	787.6
-0.040	cal	60.02	0.29	95.85	0.0037	1899	1.0	21.02	577.2
0.000	cal	64.02	3.81	97.53	0.0009	1529	13.0	21.02	241.7
0.010	1	1.00	4.36	999.00	0.0000	1317	15.0	21.03	265.1
0.020	1	2.00	4.36	999.00	0.0000	1244	18.0	21.03	328.1
0.030	1	3.00	4.10	96.90	0.0013	1229	19.0	21.03	393.4
0.040	1	4.00	3.57	97.59	0.0016	1229	18.0	21.03	440.5
0.050	1	5.00	0.01	95.91	0.0001	1269	17.0	21.03	469.8
0.060	1	6.00	-1.23	94.06	0.0022	1225	16.0	21.03	489.2
0.070	1	7.00	-1.73	93.56	0.0046	1212	15.0	21.02	500.7
0.080	1	8.00	-1.79	93.63	0.0040	1284	13.0	21.03	503.6
0.090	1	9.00	-1.85	94.04	0.0097	1280	13.0	21.03	499.5
0.100	1	10.00	-1.90	94.66	0.0162	1332	12.0	21.02	494.9
0.110	1	11.00	-1.90	94.87	0.0147	1253	12.0	21.03	492.7
0.120	1	12.00	-1.90	94.55	0.0106	1261	12.0	21.03	493.3
0.130	1	13.00	-1.91	94.17	0.0107	1231	12.0	21.03	491.3
0.140	1	14.00	-1.99	94.07	0.0099	1211	12.0	21.03	487.8
0.150	1	15.00	-1.97	93.74	0.0081	1166	10.0	21.03	484.0
0.160	1	16.00	-1.89	93.36	0.0069	1167	12.0	21.03	479.2
0.170	1	17.00	-1.83	93.21	0.0063	1182	11.0	21.03	472.2
0.180	1	18.00	-1.88	93.11	0.0077	1204	12.0	21.03	465.3
0.190	1	19.00	-1.84	93.36	0.0085	1211	12.0	21.02	457.1
0.200	1	20.00	-1.74	93.61	0.0079	1186	11.0	21.03	450.5
0.210	1	21.00	-1.84	93.49	0.0082	1225	12.0	21.03	446.6
0.220	1	22.00	-1.74	93.49	0.0094	1178	12.0	21.03	446.4
0.230	1	23.00	-1.73	93.49	0.0070	1174	12.0	21.04	447.4
0.240	1	24.00	-1.74	93.23	0.0045	1184	11.0	21.03	447.0
0.250	1	25.00	-1.71	93.32	0.0088	1179	11.0	21.03	443.9
0.260	1	26.00	-1.59	93.62	0.0085	1206	11.0	21.04	438.5
0.270	1	27.00	-1.57	93.68	0.0081	1179	11.0	21.04	434.3
0.280	1	28.00	-1.56	93.76	0.0090	1206	11.0	21.04	432.7
0.290	1	29.00	-1.47	93.74	0.0074	1193	11.0	21.03	435.5
0.300	1	30.00	-1.48	93.78	0.0086	1202	11.0	21.04	436.1
0.310	1	31.00	-1.54	93.85	0.0075	1204	11.0	21.04	424.1
0.320	1	32.00	-1.43	93.77	0.0067	1220	11.0	21.04	420.4
0.330	1	33.00	-1.38	93.79	0.0064	1169	11.0	21.05	415.3
0.340	1	34.00	-1.44	93.69	0.0069	1146	11.0	21.05	410.1
0.350	1	35.00	-1.39	93.42	0.0052	1194	11.0	21.05	406.4
0.360	1	36.00	-1.32	93.31	0.0062	1167	11.0	21.04	404.5
0.370	1	37.00	-1.40	93.62	0.0073	1148	11.0	21.05	401.2
0.380	1	38.00	-1.30	93.30	0.0057	1166	12.0	21.05	396.9
0.390	1	39.00	-1.29	93.14	0.0046	1195	11.0	21.05	392.6
0.400	1	40.00	-1.35	93.67	0.0067	1147	11.0	21.05	391.0
0.410	1	41.00	-1.34	94.04	0.0056	1203	12.0	21.05	390.8
0.420	1	42.00	-1.29	94.08	0.0056	1194	12.0	21.05	393.8
0.430	1	43.00	-1.24	94.14	0.0048	1207	11.0	21.05	394.0
0.440	1	44.00	-1.24	94.17	0.0055	1187	12.0	21.05	396.4
0.450	1	45.00	-1.29	94.02	0.0046	1148	12.0	21.06	395.9
0.460	1	46.00	-1.25	93.81	0.0047	1144	11.0	21.05	394.0
0.470	1	47.00	-1.32	93.64	0.0043	1141	11.0	21.05	390.2
0.480	1	48.00	-1.32	93.66	0.0039	1168	12.0	21.05	389.2
0.490	1	49.00	-1.48	94.08	0.0056	1189	12.0	21.05	371.8
0.500	1	50.00	-1.43	94.13	0.0044	1162	12.0	21.05	372.9
0.510	1	51.00	-1.34	93.53	0.0038	1123	12.0	21.06	372.1
0.520	1	52.00	-1.22	93.34	0.0033	1149	11.0	21.05	372.2
0.530	1	53.00	-1.17	93.46	0.0037	1155	12.0	21.05	371.4
0.540	1	54.00	-1.13	93.63	0.0024	1135	12.0	21.06	371.7
0.550	1	55.00	-1.02	93.49	0.0026	1150	12.0	21.06	372.5
0.560	1	56.00	-0.98	93.70	0.0028	1149	12.0	21.06	368.4
0.570	1	57.00	-0.67	93.89	0.0023	1143	17.0	21.06	371.6
0.580	1	58.00	-0.57	93.90	0.0018	1143	12.0	21.07	373.5
0.590	1	59.00	-0.16	93.75	0.0036	1145	12.0	21.06	379.2
0.600	1	60.00	0.94	94.63	0.0013	1162	11.0	21.07	388.0
0.610	1	61.00	1.85	94.51	0.0010	1133	11.0	21.06	395.8
0.620	1	62.00	1.89	999.00	0.0000	1151	11.0	21.07	400.4
0.630	1	63.00	1.69	999.00	0.0000	1181	10.0	21.06	401.1
0.640	1	64.00	1.24	999.00	0.0000	1209	10.0	21.06	390.9
0.650	1	65.00	0.75	999.00	0.0000	1266	10.0	21.06	363.0
0.660	1	66.00	0.66	106.96	0.0002	1390	9.0	21.07	318.6
0.670	1	67.00	1.09	95.78	0.0003	1382	9.0	21.07	259.8
0.680	1	68.00	3.63	97.98	0.0002	1572	9.0	21.07	212.6
0.690	1	69.00	3.93	999.00	0.0000	2207	8.0	21.07	199.7
0.700	2	0.72	3.79	999.00	0.0000	1413	8.0	21.07	222.0
0.710	2	1.72	4.02	999.00	0.0000	1299	8.0	21.07	268.8
0.720	2	2.72	3.98	999.00	0.0000	1285	8.0	21.08	324.4
0.730	2	3.72	3.41	999.00	0.0000	1327	9.0	21.08	371.8
0.740	2	4.72	2.43	999.00	0.0000	1350	9.0	21.08	405.7
0.750	2	5.72	-0.91	94.24	0.0004	1280	9.0	21.07	426.1
0.760	2	6.72	-1.68	93.78	0.0011	1365	10.0	21.08	437.4
0.770	2	7.72	-1.74	94.58	0.0044	1372	10.0	21.07	445.7
0.780	2	8.72	-1.75	94.98	0.0061	1220	10.0	21.07	449.8
0.790	2	9.72	-1.74	93.14	0.0040	1142	10.0	21.07	451.3
0.800	2	10.72	-1.83	92.11	0.0048	1181	11.0	21.07	449.6
0.810	2	11.72	-1.84	92.60	0.0114	1205	11.0	21.07	446.7
0.820	2	12.72	-1.48	93.65	0.0097	1201	11.0	21.07	443.7
0.830	2	13.72	-1.43	94.05	0.0075	1231	11.0	21.07	443.2
0.840	2	14.72	-1.28	94.19	0.0034	1284	11.0	21.08	446.3
0.850	2	15.72	-1.28	94.50	0.0018	1319	11.0	21.08	450.0
0.860	2	16.72	-1.19	95.27	0.0030	1298	11.0	21.08	457.8
0.870	2	17.72	-1.03	96.04	0.0015	1341	11.0	21.08	466.4
0.880	2	18.72	-1.01	108.78	0.0005	1367	10.0	21.08	475.6
0.890	2	19.72	-0.98	116.62	0.0003	1335	10.0	21.08	482.9
0.900	2	20.72	-0.91	125.31	0.0001	1426	10.0	21.08	486.0
0.910	2	21.72	-1.24	138.29	0.0000	1390	9.0	21.08	489.6
0.920	2	22.72	-1.39	999.00	0.0000	1368	9.0	21.08	493.9
0.930	2	23.72	-1.34	999.00	0.0000	1415	9.0	21.08	500.5
0.940	2	24.72	-1.29	999.00	0.0000	1417	9.0	21.09	504.6
0.950	2	25.72	-1.26	150.19	0.0000	1437	9.0	21.09	506.9
0.960	2	26.72	-1.29	150.66	0.0000	1436	9.0	21.08	506.3
0.970	2	27.72	-1.24	151.80	0.0001	1425	9.0	21.09	507.7
0.980	2	28.72	-1.24	152.55	0.0000	1410	8.0	21.09	507.2
0.990	2	29.72	-1.31	152.59	0.0000	1440	8.0	21.08	508.0
1.000	2	30.72	-1.27	151.01	0.0000	1465	9.0	21.08	504.3
1.010	2	31.72	-1.30	150.46	0.0000	1468	9.0	21.09	501.3
1.020	2	32.72	-1.29	151.81	0.0000	1428	8.0	21.09	501.9
1.030	2	33.72	-1.25	149.41	0.0001	1463	8.0	21.09	500.9
1.040	2	34.72	-1.25	149.56	0.0000	1439	8.0	21.09	495.6
1.050	2	35.72	-1.27	148.69	0.0000	1426	8.0	21.10	491.1
1.060	2	36.72	-1.25	137.90	0.0000	1437	9.0	21.10	482.2
1.070	2	37.72	-1.24	125.66	0.0001	1447	9.0	21.09	471.3
1.080	2	38.72	-1.24	117.84	0.0001	1410	9.0	21.09	457.7
1.090	2	39.72	-1.29	114.27	0.0003	1376	9.0	21.09	445.2
1.100	2	40.72	-1.34	114.68	0.0005	1352	9.0	21.09	432.0
1.110	2	41.72	-1.28	107.05	0.0005	1363	9.0	21.10	421.2
1.120	2	42.72	-1.28	94.29	0.0016	1178	10.0	21.10	414.2
1.130	2	43.72	-1.23	94.14	0.0048	1146	10.0	21.09	409.9
1.140	2	44.72	-1.23	92.47	0.0043	1131	11.0	21.09	404.1
1.150	2	45.72	-1.23	92.53	0.0063	1111	12.0	21.09	395.7
1.160	2	46.72	-1.25	92.66	0.0066	1125	11.0	21.09	384.8
1.170	2	47.72	-1.18	92.68	0.0056	1135	12.0	21.09	377.5
1.180	2	48.72	-1.22	92.70	0.0051	1138	12.0	21.09	373.6
1.190	2	49.72	-1.14	92.76	0.0066	1133	12.0	21.09	372.5
1.200	2	50.72	-1.14	92.63	0.0074	1109	13.0	21.09	372.3
1.210	2	51.72	-1.24	92.60	0.0079	1151	12.0	21.09	371.3
1.220	2	52.72	-1.14	92.58	0.0052	1124	13.0	21.09	371.2
1.230	2	53.72	-1.26	92.42	0.0024	1136	12.0	21.09	370.1
1.240	2	54.72	-1.12	103.35	0.0020	1124	13.0	21.09	368.9
1.250	2	55.72	-0.97	92.44	0.0024	1107	13.0	21.09	369.6
1.260	2	56.72	-0.87	92.56	0.0068	1134	13.0	21.09	370.7
1.270	2	57.72	-0.77	92.72	0.0060	1133	13.0	21.10	373.7
1.280	2	58.72	-0.72	92.54	0.0060	1130	12.0	21.09	376.2
1.290	2	59.72	-0.70	92.52	0.0067	1150	12.0	21.10	379.9
1.300	2	60.72	-0.68	92.67	0.0074	1150	13.0	21.10	380.4
1.310	2	61.72	-0.73	92.87	0.0071	1144	12.0	21.10	378.1
1.320	2	62.72	-0.73	92.80	0.0066	1128	12.0	21.10	378.0
1.330	2	63.72	-0.78	92.72	0.0064	1141	12.0	21.10	378.2
1.340	2	64.72	-0.78	92.94	0.0068	1162	12.0	21.10	379.7
1.350	2	65.72	-0.83	92.87	0.0056	1100	12.0	21.10	379.7
1.360	2	66.72	-0.92	92.31	0.0041	1124	12.0	21.10	379.8
1.370	2	67.72	-0.98	91.39	0.0028	1129	12.0	21.10	379.8
1.380	2	68.72	-1.07	91.77	0.0032	1084	12.0	21.09	377.2
1.390	2	69.72	-1.08	91.64	0.0032	1088	12.0	21.10	376.6
1.400	2	70.72	-1.13	91.22	0.0032	1097	12.0	21.09	376.3
1.410	2	71.72	-1.18	91.45	0.0017	1128	12.0	21.11	378.7
1.420	2	72.72	-1.23	91.60	0.0011	1092	12.0	21.11	381.6
1.430	2	73.72	-1.28	90.26	0.0008	1090	13.0	21.11	383.5
1.440	2	74.72	-1.33	90.49	0.0025	1097	12.0	21.10	383.0
1.450	2	75.72	-1.38	90.65	0.0061	1072	12.0	21.10	380.9
1.460	2	76.72	-1.43	90.42	0.0050	1075	13.0	21.11	377.7
1.470	2	77.72	-1.48	90.46	0.0073	1098	12.0	21.11	377.2
1.480	2	78.72	-1.48	91.02	0.0081	1108	12.0	21.10	376.6
1.490	2	79.72	-1.53	91.28	0.0078	1114	13.0	21.10	376.9
1.500	2	80.72	-1.57	91.73	0.0070	1126	13.0	21.11	378.1
1.510	2	81.72	-1.63	91.77	0.0059	1111	13.0	21.10	380.2
1.520	2	82.72	-1.65	91.85	0.0073	1095	12.0	21.10	381.4
1.530	2	83.72	-1.70	91.88	0.0068	1098	12.0	21.11	382.0
1.540	2	84.72	-1.76	91.88	0.0060	1099	13.0	21.11	382.3
1.550	2	85.72	-1.75	91.84	0.0062	1112	12.0	21.11	382.1
1.560	2	86.72	-1.80	91.83	0.0055	1107	13.0	21.11	382.8
1.570	2	87.72	-1.79	91.68	0.0055	1098	12.0	21.11	382.2
1.580	2	88.72	-1.77	91.59	0.0056	1114	12.0	21.11	381.5
1.590	2	89.72	-1.75	91.62	0.0048	1095	12.0	21.11	381.6
1.600	2	90.72	-1.74	91.71	0.0038	1120	12.0	21.10	381.2
1.610	2	91.72	-1.63	91.90	0.0027	1128	12.0	21.10	378.4
1.620	2	92.72	-1.62	92.26	0.0024	1156	13.0	21.10	378.0
1.630	2	93.72	-1.57	92.17	0.0027	1088	12.0	21.11	376.7
1.640	2	94.72	-1.56	91.86	0.0041	1115	12.0	21.11	374.7
1.650	2	95.72	-1.71	91.63	0.0033	1104	12.0	21.11	373.8
1.660	2	96.72	-1.58	91.65	0.0023	1083	13.0	21.11	372.5
1.670	2	97.72	-1.63	91.34	0.0021	1099	12.0	21.12	372.5
1.680	2	98.72	-1.70	91.01	0.0018	1134	13.0	21.11	373.4
1.690	2	99.72	-1.64	91.20	0.0022	1099	12.0	21.11	374.7
1.700	2	100.72	-1.70	91.06	0.0014	1106	6.0	21.12	375.8
1.710	2	101.72	-1.69	91.27	0.0007	1099	12.0	21.11	378.4
1.720	2	102.72	-1.79	91.68	0.0020	1124	13.0	21.11	378.4
1.730	2	103.72	-1.80	91.65	0.0027	1093	12.0	21.11	374.7
1.740	2	104.72	-1.72	91.51	0.0030	1078	12.0	21.11	372.8
1.750	2	105.72	-1.75	91.46	0.0030	1115	12.0	21.11	371.2
1.760	2	106.72	-1.80	91.64	0.0030	1108	12.0	21.11	371.1
1.770	2	107.72	-1.84	91.82	0.0032	1100	12.0	21.11	370.8
1.780	2	108.72	-1.77	91.74	0.0024	1098	12.0	21.11	370.3
1.790	2	109.72	-1.79	91.49	0.0026	1091	13.0	21.12	368.7
1.800	2	110.72	-1.89	91.23	0.0030	1087	12.0	21.12	366.4
1.810	2	111.72	-1.84	91.04	0.0028	1107	13.0	21.12	362.5
1.820	2	112.72	-1.75	91.06	0.0024	1103	13.0	21.11	358.8
1.830	2	113.72	-1.81	91.06	0.0020	1084	13.0	21.11	353.7
1.840	2	114.72	-1.83	91.05	0.0013	1099	13.0	21.12	347.0
1.850	2	115.72	-1.73	91.33	0.0016	1111	13.0	21.12	338.7
1.860	2	116.72	-1.79	91.36	0.0024	1098	14.0	21.11	330.0
1.870	2	117.72	-1.77	91.28	0.0021	1017	15.0	21.12	321.4
1.880	2	118.72	-1.74	91.75	0.0017	937	17.0	21.12	319.6
1.890	2	119.72	-1.74	84.18	0.0013	864	18.0	21.13	324.4
1.900	2	120.72	-1.73	83.88	0.0006	972	19.0	21.12	328.3
1.910	2	121.72	-1.74	91.93	0.0010	1088	17.0	21.13	329.1
1.920	2	122.72	-1.69	91.48	0.0018	1081	16.0	21.12	321.4
1.930	2	123.72	-1.64	91.26	0.0017	1100	14.0	21.12	316.0
1.940	2	124.72	-1.59	91.04	0.0020	1083	13.0	21.11	319.9
1.950	2	125.72	-1.61	91.13	0.0016	1084	13.0	21.12	331.8
1.960	2	126.72	-1.55	91.50	0.0008	1087	13.0	21.13	345.3
1.970	2	127.72	-1.52	91.58	0.0006	1072	12.0	21.12	354.2
1.980	2	128.72	-1.53	91.29	0.0011	1084	12.0	21.13	356.0
1.990	2	129.72	-1.47	91.41	0.0019	1081	12.0	21.12	343.9
2.000	2	130.72	-1.34	91.64	0.0020	1131	12.0	21.12	342.1
2.010	2	131.72	-1.33	91.73	0.0017	1128	11.0	21.13	341.2
2.020	2	132.72	-1.28	92.00	0.0016	1128	11.0	21.12	341.9
2.030	2	133.72	-1.14	92.68	0.0017	1192	11.0	21.12	344.2
2.040	2	134.72	-1.03	93.64	0.0017	1203	10.0	21.12	348.5
2.050	2	135.72	-0.93	93.77	0.0008	1216	11.0	21.13	349.5
2.060	2	136.72	-0.85	93.86	0.0016	1167	11.0	21.13	349.3
2.070	2	137.72	-0.77	93.98	0.0013	1238	10.0	21.13	349.2
2.080	2	138.72	-0.83	94.13	0.0022	1223	10.0	21.12	350.9
2.090	2	139.72	-0.32	94.63	0.0012	1172	11.0	21.12	351.3
2.100	2	140.72	2.23	95.13	0.0003	1163	11.0	21.13	350.8
2.110	2	141.72	2.49	94.72	0.0005	1148	11.0	21.13	348.7
2.120	2	142.72	2.17	999.00	0.0000	1141	11.0	21.13	342.1
2.130	2	143.72	1.80	999.00	0.0000	1139	11.0	21.13	329.5
2.140	2	144.72	1.70	999.00	0.0000	1134	11.0	21.13	306.5
2.150	2	145.72	1.30	999.00	0.0000	1148	10.0	21.13	272.5
2.160	2	146.72	0.92	999.00	0.0000	1145	10.0	21.13	229.1
2.170	2	147.72	0.71	111.72	0.0001	1182	11.0	21.13	190.0
2.180	2	148.72	3.29	999.00	0.0000	1642	9.0	21.13	161.2
2.190	2	149.72	4.06	999.00	0.0000	1840	9.0	21.14	152.2
2.200	3	0.77	3.84	999.00	0.0000	1173	10.0	21.14	158.9
2.210	3	1.77	4.33	999.00	0.0000	1101	10.0	21.14	184.2
2.220	3	2.77	4.01	999.00	0.0000	1139	10.0	21.13	222.5
2.230	3	3.77	3.57	999.00	0.0000	1129	11.0	21.13	260.7
2.240	3	4.77	0.28	103.10	0.0001	1129	10.0	21.14	292.1
2.250	3	5.77	-1.68	91.70	0.0016	1138	10.0	21.13	314.5
2.260	3	6.77	-1.88	91.09	0.0015	1146	11.0	21.14	330.1
2.270	3	7.77	-2.11	91.73	0.0035	1167	11.0	21.14	340.5
2.280	3	8.77	-2.16	91.42	0.0066	1151	10.0	21.13	349.1
2.290	3	9.77	-1.99	91.78	0.0063	1133	11.0	21.13	353.5
2.300	3	10.77	-1.87	92.53	0.0040	1156	11.0	21.13	356.6
2.310	3	11.77	-1.86	92.14	0.0025	1151	11.0	21.13	357.7
2.320	3	12.77	-1.85	92.40	0.0019	1169	11.0	21.14	358.0
2.330	3	13.77	-1.72	92.05	0.0031	1151	11.0	21.14	358.8
2.340	3	14.77	-1.88	92.20	0.0063	1188	11.0	21.14	360.0
2.350	3	15.77	-1.73	92.39	0.0024	1169	10.0	21.13	360.2
2.360	3	16.77	-1.57	92.03	0.0019	1157	10.0	21.14	361.0
2.370	3	17.77	-1.73	92.30	0.0015	1184	11.0	21.14	361.6
2.380	3	18.77	-1.82	91.92	0.0043	1150	11.0	21.14	363.5
2.390	3	19.77	-1.87	91.76	0.0018	1127	11.0	21.14	364.1
2.400	3	20.77	-1.84	91.61	0.0005	1108	11.0	21.14	364.4
2.410	3	21.77	-1.79	91.29	0.0045	1126	11.0	21.13	363.7
2.420	3	22.77	-1.85	91.29	0.0050	1085	11.0	21.14	365.4
2.430	3	23.77	-1.84	91.04	0.0058	1126	11.0	21.14	367.7
2.440	3	24.77	-1.85	91.29	0.0048	1092	11.0	21.14	369.9
2.450	3	25.77	-1.85	91.14	0.0053	1101	11.0	21.14	373.2
2.460	3	26.77	-1.80	90.98	0.0059	1077	11.0	21.14	375.8
2.470	3	27.77	-1.82	91.04	0.0043	1061	11.0	21.14	378.9
2.480	3	28.77	-1.77	90.90	0.0029	1070	10.0	21.14	381.7
2.490	3	29.77	-1.86	90.85	0.0034	1109	11.0	21.14	382.6
2.500	3	30.77	-1.73	91.06	0.0054	1128	10.0	21.14	381.7
2.510	3	31.77	-1.67	91.47	0.0042	1104	11.0	21.14	378.5
2.520	3	32.77	-1.72	91.47	0.0029	1074	10.0	21.14	378.6
2.530	3	33.77	-1.75	91.61	0.0034	1127	10.0	21.13	377.8
2.540	3	34.77	-1.77	91.72	0.0054	1122	10.0	21.14	374.9
2.550	3	35.77	-1.81	91.71	0.0045	1072	11.0	21.14	369.7
2.560	3	36.77	-1.77	91.31	0.0031	1064	11.0	21.14	362.3
2.570	3	37.77	-1.77	91.35	0.0028	1086	11.0	21.14	355.9
2.580	3	38.77	-1.76	91.19	0.0023	1086	12.0	21.14	350.6
2.590	3	39.77	-1.81	91.03	0.0033	1107	11.0	21.14	346.4
2.600	3	40.77	-1.76	90.88	0.0028	1100	11.0	21.14	342.8
2.610	3	41.77	-1.75	90.66	0.0028	1067	11.0	21.14	338.5
2.620	3	42.77	-1.70	90.75	0.0013	1114	11.0	21.15	335.1
2.630	3	43.77	-1.75	90.54	0.0014	1079	11.0	21.14	332.5
2.640	3	44.77	-1.69	90.90	0.0017	1066	11.0	21.15	330.4
2.650	3	45.77	-1.68	91.02	0.0022	1084	11.0	21.15	328.1
2.660	3	46.77	-1.67	91.21	0.0022	1109	12.0	21.14	325.6
2.670	3	47.77	-1.69	91.33	0.0024	1127	11.0	21.15	323.6
2.680	3	48.77	-1.64	91.33	0.0025	1124	11.0	21.14	322.9
2.690	3	49.77	-1.75	91.21	0.0028	1123	11.0	21.15	321.9
2.700	3	50.77	-1.67	91.26	0.0030	1115	11.0	21.15	322.3
2.710	3	51.77	-1.64	91.30	0.0040	1122	11.0	21.15	322.2
2.720	3	52.77	-1.79	91.26	0.0040	1128	11.0	21.14	322.5
2.730	3	53.77	-1.72	91.22	0.0038	1115	11.0	21.15	322.8
2.740	3	54.77	-1.80	91.28	0.0051	1117	11.0	21.14	322.3
2.750	3	55.77	-1.86	91.30	0.0048	1098	11.0	21.15	323.4
2.760	3	56.77	-1.82	91.28	0.0041	1114	11.0	21.14	322.5
2.770	3	57.77	-1.81	91.35	0.0040	1109	10.0	21.14	322.2
2.780	3	58.77	-1.84	91.50	0.0043	1135	11.0	21.15	322.4
2.790	3	59.77	-1.82	91.41	0.0027	1126	11.0	21.14	323.2
2.800	3	60.77	-1.77	91.60	0.0028	1144	11.0	21.14	321.4
2.810	3	61.77	-1.86	91.67	0.0041	1110	11.0	21.15	320.1
2.820	3	62.77	-1.96	91.46	0.0032	1121	11.0	21.15	319.9
2.830	3	63.77	-1.96	91.02	0.0024	1111	11.0	21.15	319.1
2.840	3	64.77	-2.07	91.32	0.0038	1129	12.0	21.15	319.8
2.850	3	65.77	-2.12	91.33	0.0065	1116	12.0	21.15	320.2
2.860	3	66.77	-2.10	91.23	0.0051	1116	12.0	21.15	320.1
2.870	3	67.77	-2.20	90.96	0.0040	1109	11.0	21.15	320.3
2.880	3	68.77	-2.21	91.26	0.0051	1117	11.0	21.15	320.6
2.890	3	69.77	-2.15	90.91	0.0040	1087	12.0	21.15	321.9
2.900	3	70.77	-2.26	90.84	0.0059	1111	11.0	21.14	322.5
2.910	3	71.77	-2.32	90.76	0.0055	1096	11.0	21.15	321.8
2.920	3	72.77	-2.26	90.82	0.0052	1072	12.0	21.15	324.8
2.930	3	73.77	-2.31	90.88	0.0048	1069	12.0	21.15	326.0
2.940	3	74.77	-2.36	90.49	0.0060	1087	11.0	21.15	328.3
2.950	3	75.77	-2.24	90.41	0.0051	1110	12.0	21.16	328.7
2.960	3	76.77	-2.23	90.48	0.0064	1068	12.0	21.15	331.4
2.970	3	77.77	-2.29	90.63	0.0048	1083	11.0	21.15	332.1
2.980	3	78.77	-2.28	90.84	0.0055	1097	11.0	21.15	334.1
2.990	3	79.77	-2.29	90.84	0.0047	1094	11.0	21.16	334.9
3.000	3	80.77	-2.33	90.77	0.0030	1085	10.0	20.84	336.7
3.010	3	81.77	-2.32	90.62	0.0030	1084	11.0	19.54	337.6
3.020	3	82.77	-2.33	90.74	0.0033	1067	11.0	18.72	338.9
3.030	3	83.77	-2.35	90.43	0.0029	1083	11.0	18.35	341.9
3.040	3	84.77	-2.16	90.30	0.0034	1076	10.0	18.22	346.1
3.050	3	85.77	-2.31	90.43	0.0031	1072	10.0	18.23	351.5
3.060	3	86.77	-2.21	90.50	0.0028	1075	11.0	18.29	357.4
3.070	3	87.77	-2.16	90.69	0.0022	1073	11.0	18.39	362.9
3.080	3	88.77	-2.15	90.53	0.0023	1112	10.0	18.51	374.8
3.090	3	89.77	-2.21	90.63	0.0030	1086	9.0	18.68	387.2
3.100	3	90.77	-2.00	90.93	0.0030	1092	10.0	18.83	398.2
3.110	3	91.77	-2.01	90.82	0.0016	1115	9.0	19.00	408.5
3.120	3	92.77	-2.04	90.60	0.0015	1368	9.0	19.17	419.5
3.130	3	93.77	-1.97	91.34	0.0028	1455	8.0	19.33	434.7
3.140	3	94.77	-1.93	92.32	0.0030	1499	8.0	19.49	448.6
3.150	3	95.77	-1.94	92.04	0.0043	1534	7.0	19.66	447.9
3.160	3	96.77	-1.94	91.84	0.0047	1514	7.0	19.81	420.7
3.170	3	97.77	-1.91	92.05	0.0043	1489	8.0	19.95	411.4
3.180	3	98.77	-1.86	92.46	0.0028	1501	8.0	20.08	401.9
3.190	3	99.77	-1.76	92.66	0.0018	1387	9.0	20.21	389.9
3.200	3	100.77	-1.53	92.23	0.0022	1105	9.0	20.32	378.6
3.210	3	101.77	-1.37	91.39	0.0021	1095	9.0	20.45	368.6
3.220	3	102.77	-1.07	91.14	0.0013	1108	10.0	20.60	359.8
3.230	3	103.77	-0.46	91.26	0.0025	1056	10.0	20.76	352.4
3.240	3	104.77	-0.51	91.52	0.0029	1062	10.0	20.90	348.2
3.250	3	105.77	-0.22	91.30	0.0056	1056	11.0	21.05	345.9
3.260	3	106.77	-0.30	91.43	0.0029	1077	10.0	21.16	345.0
3.270	3	107.77	2.84	92.60	0.0002	1087	10.0	21.28	344.2
3.280	3	108.77	2.94	92.76	0.0004	1045	10.0	21.36	344.7
3.290	3	109.77	3.05	999.00	0.0000	1055	9.0	21.44	343.7
3.300	3	110.77	3.06	92.40	0.0002	1081	9.0	21.50	338.3
3.310	3	111.77	2.19	92.73	0.0003	1062	8.0	21.53	320.8
3.320	3	112.77	1.64	91.78	0.0002	1258	7.0	21.56	284.2
3.330	3	113.77	1.15	114.08	0.0001	2702	7.0	21.59	226.1
3.340	3	114.77	0.94	93.02	0.0003	3934	-7409.0	21.61	159.4
3.350	3	115.77	0.50	93.70	0.0020	3727	4.0	21.61	110.8
