Geotek MSCL 7.9 - TN336_BB13-14.raw created at 11:15:20 on 1/21/2016.


Core Depth	Section	Sect Depth	CTD 	Tr. Time 	PW Amp   	A Gamma  	Mag Sus  	Temp     	NC Res   
m		cm	mm	µsec		cps	SI x 10^-5	°C	mV

-0.639	cal	0.01	4.81	999.00	0.0000	14203	-1.0	17.75	5.3
-0.579	cal	6.01	2.35	96.11	0.0141	6584	-2.0	17.74	25.0
-0.519	cal	12.01	-0.51	95.41	0.0284	6706	-2.0	17.75	26.2
-0.459	cal	18.01	-0.20	95.59	0.0209	6718	-2.0	17.74	27.1
-0.399	cal	24.01	2.88	96.96	0.0015	6614	-2.0	17.78	39.0
-0.339	cal	30.01	4.20	97.69	0.0103	6566	-1.0	17.78	97.9
-0.279	cal	36.01	3.83	96.57	0.0175	6668	-1.0	17.79	615.4
-0.219	cal	42.01	0.59	95.04	0.0074	6681	-2.0	17.80	801.3
-0.159	cal	48.01	-0.34	94.54	0.0227	6708	-1.0	17.81	788.7
-0.099	cal	54.01	1.87	95.76	0.0073	6634	-1.0	17.82	777.1
-0.039	cal	60.01	2.38	95.78	0.0033	6568	2.0	17.83	557.7
0.001	1	0.10	6.48	999.00	0.0000	7550	11.0	17.85	228.8
0.011	1	1.10	6.22	999.00	0.0000	4215	14.0	17.85	250.7
0.021	1	2.10	6.12	95.03	0.0012	3962	14.0	17.86	302.2
0.031	1	3.10	5.63	94.37	0.0018	3894	15.0	17.86	352.3
0.041	1	4.10	4.98	94.92	0.0003	4173	14.0	17.85	390.5
0.051	1	5.10	0.60	92.63	0.0008	4173	15.0	17.87	417.8
0.061	1	6.10	0.02	92.91	0.0029	4255	14.0	17.86	432.1
0.071	1	7.10	0.06	93.23	0.0030	4201	14.0	17.86	434.9
0.081	1	8.10	0.03	92.48	0.0033	4096	13.0	17.87	436.0
0.091	1	9.10	0.03	92.66	0.0070	4057	12.0	17.87	432.1
0.101	1	10.10	-0.03	92.12	0.0054	4066	11.0	17.87	427.8
0.111	1	11.10	-0.08	91.65	0.0106	3922	12.0	17.87	422.4
0.121	1	12.10	-0.03	91.49	0.0224	3992	12.0	17.88	417.9
0.131	1	13.10	-0.09	92.02	0.0165	3984	12.0	17.88	413.5
0.141	1	14.10	-0.14	92.52	0.0194	3866	11.0	17.88	410.5
0.151	1	15.10	-0.26	92.62	0.0096	3952	11.0	17.87	403.0
0.161	1	16.10	-0.42	91.77	0.0134	3975	11.0	17.89	398.3
0.171	1	17.10	-0.42	91.88	0.0115	3982	12.0	17.89	396.1
0.181	1	18.10	-0.42	91.34	0.0097	3618	12.0	17.89	393.4
0.191	1	19.10	-0.42	90.10	0.0093	3735	12.0	17.89	393.9
0.201	1	20.10	-0.42	90.14	0.0103	3680	12.0	17.90	389.1
0.211	1	21.10	-0.47	90.41	0.0133	3825	12.0	17.90	379.9
0.221	1	22.10	-0.48	90.61	0.0211	3640	12.0	17.90	369.8
0.231	1	23.10	-0.53	90.05	0.0092	3670	13.0	17.90	357.3
0.241	1	24.10	-0.53	90.08	0.0106	3615	13.0	17.91	344.5
0.251	1	25.10	-0.54	90.70	0.0142	3807	14.0	17.91	331.5
0.261	1	26.10	-0.60	90.92	0.0173	3595	14.0	17.91	315.3
0.271	1	27.10	-0.59	89.35	0.0083	3553	14.0	17.91	300.9
0.281	1	28.10	-0.59	88.27	0.0081	3501	13.0	17.92	292.9
0.291	1	29.10	-0.59	87.23	0.0076	3276	13.0	17.91	290.5
0.301	1	30.10	-0.59	84.87	0.0050	3140	12.0	17.92	288.3
0.311	1	31.10	-0.59	84.40	0.0038	3209	12.0	17.92	278.9
0.321	1	32.10	-0.65	84.31	0.0038	3273	11.0	17.97	272.5
0.331	1	33.10	-0.59	86.01	0.0060	3271	11.0	17.97	268.6
0.341	1	34.10	-0.64	83.78	0.0053	3244	11.0	17.98	267.7
0.351	1	35.10	-0.59	83.77	0.0047	3272	11.0	17.97	271.2
0.361	1	36.10	-0.60	86.04	0.0067	3357	12.0	17.98	276.7
0.371	1	37.10	-0.55	86.56	0.0074	3142	12.0	17.98	285.0
0.381	1	38.10	-0.49	86.80	0.0042	3071	12.0	17.98	292.9
0.391	1	39.10	-0.49	82.60	0.0022	3216	12.0	18.00	298.0
0.401	1	40.10	-0.53	91.39	0.0082	3974	12.0	17.99	301.8
0.411	1	41.10	-0.43	91.80	0.0369	3988	13.0	18.00	307.9
0.421	1	42.10	-0.46	92.51	0.0294	3916	13.0	18.28	319.0
0.431	1	43.10	-0.48	92.59	0.0144	4003	13.0	18.20	332.2
0.441	1	44.10	-0.49	92.98	0.0248	4102	13.0	18.14	345.9
0.451	1	45.10	-0.43	93.24	0.0375	4046	13.0	18.11	355.6
0.461	1	46.10	-0.48	92.95	0.0354	4053	13.0	18.11	364.3
0.471	1	47.10	-0.37	92.90	0.0232	4026	13.0	18.13	370.1
0.481	1	48.10	-0.42	93.05	0.0190	4003	13.0	18.12	370.7
0.491	1	49.10	-0.29	92.88	0.0356	3969	13.0	18.13	379.9
0.501	1	50.10	-0.21	92.65	0.0388	3925	13.0	18.14	379.9
0.511	1	51.10	-0.14	92.54	0.0368	3922	13.0	18.14	367.9
0.521	1	52.10	-0.03	92.82	0.0283	3946	13.0	18.14	356.7
0.531	1	53.10	-0.03	92.82	0.0193	3864	14.0	18.16	357.5
0.541	1	54.10	0.02	92.56	0.0202	3859	14.0	18.16	357.7
0.551	1	55.10	0.10	92.25	0.0335	3831	14.0	18.17	356.6
0.561	1	56.10	0.05	92.38	0.0278	3879	13.0	18.18	355.0
0.571	1	57.10	0.16	92.64	0.0201	4001	13.0	18.20	353.9
0.581	1	58.10	0.15	93.04	0.0167	3965	13.0	18.21	353.8
0.591	1	59.10	0.40	93.41	0.0211	4088	14.0	18.23	355.1
0.601	1	60.10	0.75	94.26	0.0275	4121	13.0	18.26	355.2
0.611	1	61.10	0.79	94.02	0.0293	4044	13.0	18.25	352.0
0.621	1	62.10	2.61	94.65	0.0028	4081	13.0	18.25	346.8
0.631	1	63.10	3.51	95.18	0.0038	4071	13.0	18.25	337.8
0.641	1	64.10	3.45	96.07	0.0004	3999	13.0	18.29	326.8
0.651	1	65.10	3.48	94.60	0.0004	4005	13.0	18.32	313.4
0.661	1	66.10	3.26	95.27	0.0072	4065	12.0	18.35	295.8
0.671	1	67.10	2.95	94.88	0.0032	4002	11.0	18.36	268.9
0.681	1	68.10	2.52	93.82	0.0066	3993	10.0	18.38	224.4
0.691	1	69.10	2.54	93.87	0.0027	3933	9.0	18.35	165.9
0.701	1	70.10	2.52	94.03	0.0144	3951	8.0	18.36	113.5
0.711	1	71.10	2.21	93.52	0.0154	6669	6.0	18.36	82.2
