Geotek MSCL 7.9 - TN336_JPC40-49.raw created at 15:55:31 on 1/26/2016.


Core Depth	Section	Sect Depth	CTD 	Tr. Time 	PW Amp   	A Gamma  	Mag Sus  	Temp     	NC Res   
m		cm	mm	µsec		cps	SI x 10^-5	°C	mV

-0.639	before cal	-0.03	5.67	999.00	0.0000	15202	-1.0	19.72	6.3
-0.579	cal	5.97	2.43	96.46	0.0049	6208	-2.0	19.71	26.3
-0.519	cal	11.97	-0.29	95.40	0.0239	6256	-1.0	19.72	27.1
-0.459	cal	17.97	0.20	95.72	0.0166	6318	-2.0	19.71	28.2
-0.399	cal	23.97	3.30	97.11	0.0010	6242	-2.0	19.74	34.4
-0.339	cal	29.97	4.59	97.67	0.0114	6350	-1.0	19.74	83.7
-0.279	cal	35.97	3.46	96.47	0.0027	6092	-1.0	19.74	564.9
-0.219	cal	41.97	0.79	94.78	0.0033	6273	-1.0	19.75	769.2
-0.159	cal	47.97	0.03	94.95	0.0253	6210	-1.0	19.75	773.9
-0.099	cal	53.97	0.87	95.35	0.0074	6320	-1.0	19.76	774.7
-0.039	cal	59.97	2.53	95.80	0.0283	6161	6.0	19.77	566.6
0.001	1	0.10	5.33	999.00	0.0000	9737	31.0	19.78	213.1
0.011	1	1.10	4.49	999.00	0.0000	4426	37.0	19.78	254.7
0.021	1	2.10	3.54	96.29	0.0011	4281	42.0	19.78	327.3
0.031	1	3.10	4.41	105.04	0.0001	4376	46.0	19.78	398.4
0.041	1	4.10	4.92	999.00	0.0000	4358	48.0	19.79	452.3
0.051	1	5.10	2.83	999.00	0.0000	4366	48.0	19.79	487.1
0.061	1	6.10	2.81	999.00	0.0000	4339	48.0	19.79	507.3
0.071	1	7.10	2.30	103.99	0.0001	4393	48.0	19.79	518.7
0.081	1	8.10	1.62	999.00	0.0000	4453	48.0	19.80	529.3
0.091	1	9.10	0.96	94.82	0.0047	4416	46.0	19.79	541.5
0.101	1	10.10	0.66	94.92	0.0056	4429	46.0	19.79	550.4
0.111	1	11.10	0.15	94.92	0.0140	4514	45.0	19.79	554.0
0.121	1	12.10	0.03	95.18	0.0281	4505	44.0	19.79	553.2
0.131	1	13.10	-0.02	95.22	0.0352	4377	43.0	19.80	553.2
0.141	1	14.10	-0.01	95.20	0.0441	4445	43.0	19.79	555.8
0.151	1	15.10	-0.04	95.16	0.0246	4473	42.0	19.79	560.3
0.161	1	16.10	-0.11	94.99	0.0326	4531	42.0	19.80	563.7
0.171	1	17.10	-0.19	95.25	0.0380	4453	41.0	19.80	567.0
0.181	1	18.10	-0.18	95.29	0.0364	4453	39.0	19.79	570.0
0.191	1	19.10	-0.16	95.27	0.0319	4503	39.0	19.80	575.3
0.201	1	20.10	-0.19	95.22	0.0222	4516	38.0	19.80	578.5
0.211	1	21.10	-0.19	95.06	0.0203	4507	36.0	19.79	584.7
0.221	1	22.10	-0.20	95.00	0.0229	4513	36.0	19.81	588.9
0.231	1	23.10	-0.25	95.06	0.0224	4496	34.0	19.80	594.2
0.241	1	24.10	-0.20	95.14	0.0175	4461	34.0	19.81	598.9
0.251	1	25.10	-0.16	95.26	0.0206	4482	33.0	19.81	605.0
0.261	1	26.10	-0.14	95.39	0.0205	4494	32.0	19.81	610.4
0.271	1	27.10	-0.13	95.40	0.0113	4582	32.0	19.81	613.2
0.281	1	28.10	-0.09	95.29	0.0101	4514	30.0	19.81	612.6
0.291	1	29.10	-0.10	95.37	0.0108	4559	31.0	19.81	611.7
0.301	1	30.10	-0.10	95.26	0.0193	4544	30.0	19.81	611.2
0.311	1	31.10	-0.07	95.36	0.0223	4527	29.0	19.82	607.0
0.321	1	32.10	-0.05	95.39	0.0237	4550	30.0	19.82	604.2
0.331	1	33.10	-0.05	95.42	0.0233	4567	30.0	19.82	602.3
0.341	1	34.10	0.00	95.42	0.0360	4551	30.0	19.81	598.2
0.351	1	35.10	0.00	95.50	0.0295	4701	30.0	19.82	591.7
0.361	1	36.10	0.00	95.32	0.0155	4530	29.0	19.82	584.6
0.371	1	37.10	0.04	95.31	0.0116	4499	29.0	19.83	579.5
0.381	1	38.10	0.06	95.51	0.0229	4613	28.0	19.83	576.4
0.391	1	39.10	0.05	95.66	0.0186	4547	27.0	19.83	574.9
0.401	1	40.10	0.05	95.69	0.0159	4599	27.0	19.83	572.6
0.411	1	41.10	0.00	95.69	0.0150	4549	27.0	19.83	574.3
0.421	1	42.10	-0.05	95.63	0.0120	4566	26.0	19.82	575.4
0.431	1	43.10	-0.05	95.73	0.0120	4593	25.0	19.83	576.6
0.441	1	44.10	-0.10	95.78	0.0124	4624	26.0	19.84	577.5
0.451	1	45.10	-0.04	95.69	0.0098	4672	25.0	19.83	576.9
0.461	1	46.10	-0.08	96.09	0.0079	4671	25.0	19.83	577.8
0.471	1	47.10	-0.09	95.62	0.0075	4614	25.0	19.83	577.2
0.481	1	48.10	-0.09	95.61	0.0141	4618	25.0	19.83	576.7
0.491	1	49.10	-0.04	95.68	0.0112	4636	25.0	19.83	578.2
0.501	1	50.10	0.01	95.65	0.0125	4641	25.0	19.83	581.0
0.511	1	51.10	0.11	95.74	0.0102	4571	25.0	19.83	585.0
0.521	1	52.10	0.20	95.74	0.0111	4620	25.0	19.83	587.5
0.531	1	53.10	0.22	95.73	0.0132	4619	26.0	19.82	589.5
0.541	1	54.10	0.45	95.77	0.0122	4640	26.0	19.83	592.6
0.551	1	55.10	0.50	95.85	0.0081	4741	25.0	19.83	596.7
0.561	1	56.10	0.56	95.89	0.0098	4668	25.0	19.83	601.3
0.571	1	57.10	0.60	96.03	0.0093	4693	25.0	19.83	602.3
0.581	1	58.10	0.60	95.91	0.0121	4753	25.0	19.84	602.4
0.591	1	59.10	0.55	95.78	0.0120	4676	25.0	19.83	601.1
0.601	1	60.10	0.54	95.71	0.0138	4657	25.0	19.83	600.9
0.611	1	61.10	0.50	95.66	0.0124	4641	25.0	19.83	603.3
0.621	1	62.10	0.48	95.73	0.0121	4645	25.0	19.83	608.4
0.631	1	63.10	0.39	95.98	0.0107	4720	25.0	19.83	613.6
0.641	1	64.10	0.39	96.03	0.0096	4722	25.0	19.83	620.2
0.651	1	65.10	0.35	96.03	0.0079	4664	25.0	19.83	621.5
0.661	1	66.10	0.29	95.85	0.0082	4697	25.0	19.83	619.1
0.671	1	67.10	0.25	95.80	0.0078	4641	25.0	19.84	615.3
0.681	1	68.10	0.19	95.70	0.0076	4668	26.0	19.84	625.7
0.691	1	69.10	0.15	95.81	0.0086	4656	26.0	19.84	624.8
0.701	1	70.10	0.15	95.97	0.0091	4610	26.0	19.84	623.9
0.711	1	71.10	0.12	96.05	0.0083	4713	25.0	19.84	623.0
0.721	1	72.10	0.04	96.05	0.0077	4716	25.0	19.84	621.6
0.731	1	73.10	0.00	96.02	0.0075	4727	24.0	19.85	620.1
0.741	1	74.10	-0.03	96.03	0.0073	4808	24.0	19.85	622.3
0.751	1	75.10	-0.05	95.92	0.0069	4737	24.0	19.85	624.0
0.761	1	76.10	-0.10	95.82	0.0077	4847	24.0	19.85	627.7
0.771	1	77.10	-0.16	95.79	0.0083	4920	24.0	19.86	634.0
0.781	1	78.10	-0.20	95.74	0.0085	4835	24.0	19.85	641.2
0.791	1	79.10	-0.26	95.74	0.0083	4762	23.0	19.85	648.9
0.801	1	80.10	-0.30	95.74	0.0084	4839	23.0	19.85	654.8
0.811	1	81.10	-0.35	95.62	0.0073	4815	23.0	19.85	659.1
0.821	1	82.10	-0.40	95.63	0.0069	4919	23.0	19.86	661.7
0.831	1	83.10	-0.35	95.81	0.0072	4835	23.0	19.86	668.6
0.841	1	84.10	-0.36	95.85	0.0062	4708	23.0	19.86	680.7
0.851	1	85.10	-0.29	96.01	0.0055	4736	21.0	19.86	694.7
0.861	1	86.10	-0.35	96.03	0.0064	4797	21.0	19.86	706.5
0.871	1	87.10	-0.29	96.09	0.0051	4782	21.0	19.86	712.2
0.881	1	88.10	-0.29	96.14	0.0049	4797	20.0	19.87	713.7
0.891	1	89.10	-0.24	96.16	0.0053	4806	20.0	19.87	715.6
0.901	1	90.10	-0.18	96.17	0.0047	4794	21.0	19.87	718.0
0.911	1	91.10	-0.24	96.18	0.0044	4821	20.0	19.87	720.6
0.921	1	92.10	-0.18	96.18	0.0044	4807	20.0	19.87	725.5
0.931	1	93.10	-0.12	96.04	0.0044	4807	20.0	19.87	727.8
0.941	1	94.10	-0.23	95.83	0.0053	4784	19.0	19.87	727.1
0.951	1	95.10	-0.18	95.71	0.0100	4837	20.0	19.87	722.3
0.961	1	96.10	-0.18	95.90	0.0066	4806	20.0	19.87	716.9
0.971	1	97.10	-0.18	96.06	0.0054	4874	20.0	19.88	712.6
0.981	1	98.10	-0.23	96.11	0.0052	4880	20.0	19.87	711.7
0.991	1	99.10	-0.25	96.11	0.0044	4902	21.0	19.88	714.1
1.001	1	100.10	-0.29	96.10	0.0043	4818	21.0	19.87	714.5
1.011	1	101.10	-0.38	96.07	0.0029	4752	22.0	19.87	714.9
1.021	1	102.10	-0.27	95.91	0.0025	4787	23.0	19.88	717.8
1.031	1	103.10	-0.20	95.85	0.0021	4838	23.0	19.88	737.5
1.041	1	104.10	-0.20	95.78	0.0019	4911	23.0	19.88	743.7
1.051	1	105.10	-0.12	95.86	0.0020	4894	23.0	19.88	746.5
1.061	1	106.10	-0.05	96.01	0.0018	4879	23.0	19.88	747.1
1.071	1	107.10	-0.06	96.11	0.0018	4886	22.0	19.89	734.0
1.081	1	108.10	0.04	96.00	0.0014	5064	21.0	19.89	740.1
1.091	1	109.10	0.10	96.03	0.0011	5008	21.0	19.89	702.0
1.101	1	110.10	0.10	96.01	0.0015	4941	20.0	19.88	698.3
1.111	1	111.10	0.20	96.14	0.0014	4997	21.0	19.89	697.1
1.121	1	112.10	0.26	96.20	0.0015	4925	23.0	19.89	694.0
1.131	1	113.10	0.29	96.20	0.0011	4928	24.0	19.89	696.9
1.141	1	114.10	0.39	96.06	0.0011	4994	26.0	19.89	692.9
1.151	1	115.10	0.49	95.81	0.0011	4917	29.0	19.90	687.9
1.161	1	116.10	0.59	95.24	0.0010	4892	31.0	19.90	681.6
1.171	1	117.10	0.78	94.52	0.0005	4536	32.0	19.90	674.6
1.181	1	118.10	1.00	94.12	0.0003	4719	32.0	19.90	665.1
1.191	1	119.10	1.28	95.25	0.0011	5007	30.0	19.90	650.5
1.201	1	120.10	2.64	96.48	0.0021	4921	30.0	19.90	624.5
1.211	1	121.10	3.48	96.76	0.0009	5060	30.0	19.90	577.1
1.221	1	122.10	4.02	95.76	0.0002	5094	31.0	19.90	500.0
1.231	1	123.10	4.37	96.07	0.0035	5048	33.0	19.90	398.6
1.241	1	124.10	5.79	97.27	0.0081	4964	37.0	19.90	306.7
1.251	1	125.10	6.24	96.95	0.0040	5114	41.0	19.90	257.7
1.261	2	0.60	6.44	999.00	0.0000	7318	45.0	19.91	258.8
1.271	2	1.60	6.51	999.00	0.0000	4321	50.0	19.90	298.8
1.281	2	2.60	6.27	999.00	0.0000	4273	54.0	19.91	352.8
1.291	2	3.60	5.57	999.00	0.0000	4253	57.0	19.91	406.6
1.301	2	4.60	4.41	999.00	0.0000	4340	59.0	19.91	449.1
1.311	2	5.60	1.29	999.00	0.0000	4406	62.0	19.91	478.7
1.321	2	6.60	0.08	107.09	0.0001	4414	64.0	19.92	499.0
1.331	2	7.60	-0.24	113.42	0.0001	4470	66.0	19.93	511.0
1.341	2	8.60	-0.29	98.19	0.0011	4475	68.0	19.92	517.2
1.351	2	9.60	-0.25	94.90	0.0043	4424	70.0	19.91	520.1
1.361	2	10.60	-0.24	94.79	0.0275	4352	73.0	19.92	521.6
1.371	2	11.60	-0.21	94.98	0.0342	4350	75.0	19.91	523.9
1.381	2	12.60	-0.20	94.90	0.0318	4306	77.0	19.92	524.2
1.391	2	13.60	-0.16	94.83	0.0297	4256	79.0	19.92	524.0
1.401	2	14.60	-0.10	94.80	0.0281	4187	80.0	19.92	522.1
1.411	2	15.60	-0.05	94.93	0.0272	4230	81.0	19.92	519.8
1.421	2	16.60	0.00	95.00	0.0252	4309	82.0	19.91	517.9
1.431	2	17.60	0.05	95.04	0.0276	4318	82.0	19.92	516.2
1.441	2	18.60	0.15	95.04	0.0256	4314	84.0	19.93	516.4
1.451	2	19.60	0.26	95.05	0.0235	4291	85.0	19.92	515.0
1.461	2	20.60	0.28	94.99	0.0187	4245	86.0	19.92	513.4
1.471	2	21.60	0.30	94.99	0.0159	4191	90.0	19.94	511.4
1.481	2	22.60	0.30	95.05	0.0171	4189	92.0	19.94	508.9
1.491	2	23.60	0.33	95.25	0.0210	4247	94.0	19.93	506.8
1.501	2	24.60	0.35	95.21	0.0174	4139	97.0	19.94	506.7
1.511	2	25.60	0.35	95.23	0.0186	4181	100.0	19.95	507.9
1.521	2	26.60	0.35	95.22	0.0186	4160	103.0	19.94	509.9
1.531	2	27.60	0.35	95.05	0.0180	4142	105.0	19.95	508.5
1.541	2	28.60	0.36	95.05	0.0237	4117	109.0	19.95	504.4
1.551	2	29.60	0.39	94.97	0.0269	4124	112.0	19.95	498.5
1.561	2	30.60	0.40	94.89	0.0219	4034	116.0	19.96	491.0
1.571	2	31.60	0.41	94.86	0.0221	4083	119.0	19.95	483.4
1.581	2	32.60	0.40	94.88	0.0247	4101	123.0	19.95	476.2
1.591	2	33.60	0.40	94.63	0.0192	3941	127.0	19.95	470.3
1.601	2	34.60	0.36	94.57	0.0201	3938	131.0	19.96	463.6
1.611	2	35.60	0.36	94.47	0.0229	3944	135.0	19.95	456.5
1.621	2	36.60	0.35	94.24	0.0208	3882	139.0	19.95	450.7
1.631	2	37.60	0.35	94.11	0.0207	3865	144.0	19.96	442.8
1.641	2	38.60	0.31	93.90	0.0194	3810	147.0	19.96	434.5
1.651	2	39.60	0.26	93.75	0.0168	3806	153.0	19.96	427.4
1.661	2	40.60	0.26	93.63	0.0193	3733	158.0	19.96	421.2
1.671	2	41.60	0.20	93.04	0.0139	3573	162.0	19.96	413.9
1.681	2	42.60	0.16	92.62	0.0230	3721	164.0	19.96	407.8
1.691	2	43.60	0.15	92.98	0.0300	3705	165.0	19.97	402.5
1.701	2	44.60	0.10	92.92	0.0275	3789	166.0	19.97	399.0
1.711	2	45.60	0.05	93.27	0.0496	3869	167.0	19.97	400.1
1.721	2	46.60	0.05	93.20	0.0337	3763	171.0	19.97	401.2
1.731	2	47.60	0.00	92.90	0.0302	3641	173.0	19.98	405.2
1.741	2	48.60	0.10	92.76	0.0270	3602	173.0	19.97	409.0
1.751	2	49.60	0.26	91.72	0.0119	3623	170.0	19.97	414.0
1.761	2	50.60	0.26	89.00	0.0057	3408	166.0	19.98	419.3
1.771	2	51.60	0.27	87.57	0.0082	3399	165.0	19.98	422.3
1.781	2	52.60	0.31	87.30	0.0092	3410	167.0	19.98	422.8
1.791	2	53.60	0.40	87.35	0.0078	3401	169.0	19.97	419.4
1.801	2	54.60	0.46	88.49	0.0062	3428	170.0	19.98	418.9
1.811	2	55.60	0.55	90.85	0.0090	3634	169.0	19.98	418.3
1.821	2	56.60	0.65	92.67	0.0073	3730	164.0	19.98	419.4
1.831	2	57.60	0.72	93.64	0.0134	3831	159.0	19.98	419.8
1.841	2	58.60	0.77	94.44	0.0115	3975	155.0	19.98	420.8
1.851	2	59.60	0.77	94.63	0.0164	3956	153.0	19.99	422.0
1.861	2	60.60	0.76	94.45	0.0131	3872	152.0	19.99	424.5
1.871	2	61.60	0.71	94.38	0.0156	3926	153.0	19.99	428.1
1.881	2	62.60	0.74	94.43	0.0137	3863	155.0	19.99	428.0
1.891	2	63.60	0.71	94.05	0.0100	3824	157.0	19.99	429.9
1.901	2	64.60	0.65	94.11	0.0193	3887	159.0	19.99	427.5
1.911	2	65.60	0.61	94.22	0.0158	3864	159.0	19.99	423.2
1.921	2	66.60	0.59	94.24	0.0179	3907	160.0	19.99	418.1
1.931	2	67.60	0.53	94.24	0.0176	3808	159.0	19.99	413.3
1.941	2	68.60	0.54	94.14	0.0150	3768	159.0	20.00	411.1
1.951	2	69.60	0.44	94.01	0.0134	3802	161.0	20.00	410.4
1.961	2	70.60	0.39	94.17	0.0165	3862	164.0	20.00	414.4
1.971	2	71.60	0.49	94.08	0.0275	3833	169.0	20.00	417.0
1.981	2	72.60	0.39	93.94	0.0239	3853	173.0	20.00	419.9
1.991	2	73.60	0.34	93.46	0.0249	3764	178.0	20.01	421.1
2.001	2	74.60	0.30	93.06	0.0140	3705	182.0	20.00	420.2
2.011	2	75.60	0.26	93.25	0.0416	3732	186.0	20.01	419.5
2.021	2	76.60	0.16	93.68	0.0418	3819	190.0	20.01	419.6
2.031	2	77.60	0.14	93.54	0.0400	3741	192.0	20.01	421.6
2.041	2	78.60	0.04	92.97	0.0213	3605	195.0	20.01	424.8
2.051	2	79.60	-0.06	92.32	0.0090	3664	194.0	20.01	426.4
2.061	2	80.60	-0.06	92.60	0.0203	3592	193.0	20.02	428.3
2.071	2	81.60	-0.16	92.57	0.0094	3652	188.0	20.01	430.5
2.081	2	82.60	-0.26	92.91	0.0176	3759	184.0	20.02	437.2
2.091	2	83.60	-0.26	93.43	0.0146	3846	180.0	20.01	446.3
2.101	2	84.60	-0.36	93.90	0.0179	3860	175.0	20.01	451.4
2.111	2	85.60	-0.42	94.21	0.0166	3950	169.0	20.01	450.0
2.121	2	86.60	-0.36	94.14	0.0147	3851	162.0	20.02	444.1
2.131	2	87.60	-0.36	93.78	0.0144	3757	156.0	20.02	439.2
2.141	2	88.60	-0.36	93.65	0.0094	3654	152.0	20.03	439.0
2.151	2	89.60	-0.36	93.71	0.0211	3913	146.0	20.02	440.0
2.161	2	90.60	-0.30	94.25	0.0201	3921	143.0	20.03	439.1
2.171	2	91.60	-0.30	94.07	0.0140	3856	142.0	20.02	437.0
2.181	2	92.60	-0.30	93.83	0.0162	3807	140.0	20.03	434.2
2.191	2	93.60	-0.24	93.38	0.0133	3676	139.0	20.03	435.4
2.201	2	94.60	-0.30	93.30	0.0100	3722	137.0	20.02	433.9
2.211	2	95.60	-0.25	93.76	0.0129	3820	136.0	20.03	431.4
2.221	2	96.60	-0.23	94.07	0.0123	3874	134.0	20.03	427.1
2.231	2	97.60	-0.19	93.95	0.0162	3798	136.0	20.03	425.3
2.241	2	98.60	-0.15	94.02	0.0143	3797	139.0	20.03	425.2
2.251	2	99.60	-0.10	93.98	0.0125	3722	143.0	20.04	427.2
2.261	2	100.60	-0.08	93.64	0.0067	3691	147.0	20.03	432.8
2.271	2	101.60	0.00	93.57	0.0077	3827	149.0	20.03	439.8
2.281	2	102.60	0.00	93.86	0.0111	3790	149.0	20.03	443.7
2.291	2	103.60	0.00	94.04	0.0098	3837	148.0	20.04	449.2
2.301	2	104.60	-0.05	94.22	0.0135	3883	145.0	20.04	454.7
2.311	2	105.60	-0.10	94.46	0.0129	3934	143.0	20.04	458.8
2.321	2	106.60	-0.10	94.47	0.0101	3933	140.0	20.04	465.2
2.331	2	107.60	-0.10	94.43	0.0122	3969	138.0	20.04	467.5
2.341	2	108.60	-0.16	94.42	0.0113	3933	136.0	20.04	472.7
2.351	2	109.60	-0.15	94.45	0.0113	3993	133.0	20.05	473.5
2.361	2	110.60	-0.16	94.54	0.0102	3961	131.0	20.04	474.6
2.371	2	111.60	-0.25	94.54	0.0089	4007	129.0	20.07	472.1
2.381	2	112.60	-0.20	94.55	0.0065	4066	128.0	20.07	470.4
2.391	2	113.60	-0.20	94.53	0.0079	3995	128.0	20.07	470.3
2.401	2	114.60	-0.20	94.52	0.0112	4028	127.0	20.07	471.3
2.411	2	115.60	-0.23	94.45	0.0107	3964	126.0	20.07	472.8
2.421	2	116.60	-0.18	94.43	0.0097	3969	125.0	20.07	473.4
2.431	2	117.60	-0.20	94.32	0.0085	3954	123.0	20.08	473.6
2.441	2	118.60	-0.23	94.18	0.0092	3919	119.0	20.07	475.5
2.451	2	119.60	-0.19	94.14	0.0077	3934	114.0	20.08	478.9
2.461	2	120.60	-0.25	94.43	0.0129	4039	110.0	20.08	481.7
2.471	2	121.60	-0.25	94.72	0.0090	4076	106.0	20.08	485.1
2.481	2	122.60	-0.24	94.76	0.0086	4139	101.0	20.08	487.5
2.491	2	123.60	-0.20	94.84	0.0093	4117	98.0	20.08	491.5
2.501	2	124.60	-0.15	94.87	0.0073	4155	95.0	20.09	495.0
2.511	2	125.60	-0.10	94.78	0.0077	4167	92.0	20.09	497.9
2.521	2	126.60	-0.01	94.84	0.0073	4163	90.0	20.09	498.9
2.531	2	127.60	0.03	94.96	0.0087	4164	88.0	20.10	498.1
2.541	2	128.60	0.06	95.18	0.0079	4190	85.0	20.09	499.3
2.551	2	129.60	0.18	95.23	0.0067	4156	84.0	20.10	499.6
2.561	2	130.60	0.25	95.26	0.0046	4208	82.0	20.10	498.8
2.571	2	131.60	0.32	95.29	0.0039	4195	81.0	20.09	476.5
2.581	2	132.60	0.43	95.36	0.0044	4235	80.0	20.10	478.3
2.591	2	133.60	0.50	95.31	0.0035	4249	78.0	20.10	477.3
2.601	2	134.60	0.60	95.31	0.0035	4178	76.0	20.10	477.3
2.611	2	135.60	0.72	95.42	0.0040	4215	73.0	20.10	477.0
2.621	2	136.60	1.13	95.88	0.0022	4253	71.0	20.10	479.3
2.631	2	137.60	0.98	95.91	0.0022	4359	68.0	20.11	481.4
2.641	2	138.60	1.23	95.63	0.0023	4359	67.0	20.11	485.1
2.651	2	139.60	1.30	95.45	0.0027	4348	66.0	20.10	487.7
2.661	2	140.60	1.38	95.84	0.0021	4387	65.0	20.11	488.4
2.671	2	141.60	1.38	95.76	0.0016	4320	66.0	20.11	489.1
2.681	2	142.60	2.45	96.06	0.0021	4371	67.0	20.11	485.6
2.691	2	143.60	2.71	96.33	0.0005	4397	69.0	20.11	483.1
2.701	2	144.60	2.83	95.65	0.0002	4234	71.0	20.11	475.0
2.711	2	145.60	3.62	96.06	0.0015	4076	72.0	20.12	459.0
2.721	2	146.60	3.93	96.26	0.0010	4248	71.0	20.12	427.8
2.731	2	147.60	3.72	96.45	0.0003	4235	72.0	20.12	377.5
2.741	2	148.60	3.70	96.55	0.0013	4233	72.0	20.13	297.6
2.751	2	149.60	5.15	97.27	0.0015	4288	75.0	20.12	207.2
2.761	2	150.60	5.37	999.00	0.0000	4471	82.0	20.12	145.9
2.771	3	0.22	5.16	999.00	0.0000	11864	94.0	20.13	136.3
2.781	3	1.22	4.43	999.00	0.0000	8030	113.0	20.13	179.8
2.791	3	2.22	3.92	94.97	0.0012	4505	136.0	20.13	253.0
2.801	3	3.22	4.62	95.38	0.0032	3896	157.0	20.13	322.0
2.811	3	4.22	5.09	95.75	0.0012	3582	179.0	20.13	365.4
2.821	3	5.22	2.88	94.28	0.0018	3736	196.0	20.13	392.6
2.831	3	6.22	2.75	95.54	0.0004	3872	207.0	20.14	411.9
2.841	3	7.22	2.33	999.00	0.0000	3317	211.0	20.14	425.7
2.851	3	8.22	1.76	999.00	0.0000	3373	208.0	20.14	432.2
2.861	3	9.22	0.94	88.39	0.0009	3436	202.0	20.15	433.9
2.871	3	10.22	0.36	88.89	0.0022	3484	194.0	20.15	431.7
2.881	3	11.22	-0.09	92.61	0.0055	3794	187.0	20.14	429.2
2.891	3	12.22	-0.15	93.37	0.0118	3933	181.0	20.15	427.3
2.901	3	13.22	-0.10	92.97	0.0057	3628	174.0	20.14	429.0
2.911	3	14.22	-0.05	92.17	0.0031	3710	165.0	20.15	434.4
2.921	3	15.22	-0.04	93.46	0.0108	3901	156.0	20.14	437.4
2.931	3	16.22	0.03	93.54	0.0048	3636	146.0	20.15	439.8
2.941	3	17.22	0.11	92.49	0.0059	3605	137.0	20.14	440.5
2.951	3	18.22	0.16	93.45	0.0076	4033	131.0	20.15	438.9
2.961	3	19.22	0.20	95.12	0.0137	4287	132.0	20.15	438.9
2.971	3	20.22	0.25	95.28	0.0063	4025	139.0	20.15	442.2
2.981	3	21.22	0.26	94.79	0.0125	4077	148.0	20.15	444.8
2.991	3	22.22	0.30	94.61	0.0052	3591	152.0	20.15	446.9
3.001	3	23.22	0.36	90.11	0.0022	3390	152.0	20.16	448.1
3.011	3	24.22	0.45	92.07	0.0022	3680	150.0	20.16	446.1
3.021	3	25.22	0.45	94.13	0.0142	3869	148.0	20.16	442.0
3.031	3	26.22	0.45	94.42	0.0064	3779	150.0	20.16	439.2
3.041	3	27.22	0.44	94.05	0.0037	3810	157.0	20.16	435.2
3.051	3	28.22	0.40	94.73	0.0071	4066	167.0	20.16	432.3
3.061	3	29.22	0.39	94.93	0.0072	3803	180.0	20.17	429.8
3.071	3	30.22	0.36	93.27	0.0027	3625	192.0	20.18	428.9
3.081	3	31.22	0.31	91.54	0.0015	3455	197.0	20.18	422.2
3.091	3	32.22	0.36	90.76	0.0022	3530	200.0	20.17	419.2
3.101	3	33.22	0.36	92.45	0.0074	3625	201.0	20.17	416.2
3.111	3	34.22	0.27	92.83	0.0069	3634	200.0	20.17	413.2
3.121	3	35.22	0.31	92.44	0.0048	3476	198.0	20.17	410.7
3.131	3	36.22	0.27	92.57	0.0039	3737	197.0	20.18	407.9
3.141	3	37.22	0.26	92.79	0.0095	3489	196.0	20.17	405.4
3.151	3	38.22	0.26	91.64	0.0032	3459	197.0	20.18	400.6
3.161	3	39.22	0.19	93.63	0.0046	3920	202.0	20.18	398.5
3.171	3	40.22	0.11	93.76	0.0101	3695	206.0	20.18	398.4
3.181	3	41.22	0.10	91.26	0.0025	3473	207.0	20.18	397.9
3.191	3	42.22	0.07	88.47	0.0028	3376	202.0	20.19	405.7
3.201	3	43.22	0.12	88.47	0.0031	3300	193.0	20.18	407.1
3.211	3	44.22	0.06	88.83	0.0035	3439	181.0	20.18	409.9
3.221	3	45.22	0.08	89.75	0.0023	3457	167.0	20.20	412.2
3.231	3	46.22	0.07	92.59	0.0021	3736	154.0	20.20	415.0
3.241	3	47.22	0.11	94.17	0.0037	3930	147.0	20.20	417.1
3.251	3	48.22	0.16	94.56	0.0076	4047	145.0	20.19	419.4
3.261	3	49.22	0.13	94.84	0.0070	4228	146.0	20.19	422.7
3.271	3	50.22	0.03	94.06	0.0044	3590	148.0	20.20	426.5
3.281	3	51.22	0.06	92.63	0.0042	3707	148.0	20.19	429.3
3.291	3	52.22	0.07	93.65	0.0062	3872	148.0	20.20	429.0
3.301	3	53.22	0.07	94.26	0.0116	3961	149.0	20.19	430.3
3.311	3	54.22	0.06	94.56	0.0082	3942	153.0	20.19	431.6
3.321	3	55.22	0.20	94.61	0.0075	3911	158.0	20.20	434.9
3.331	3	56.22	0.21	94.63	0.0064	3975	160.0	20.20	442.2
3.341	3	57.22	0.41	94.12	0.0019	3643	160.0	20.20	445.2
3.351	3	58.22	0.41	93.23	0.0018	3911	158.0	20.20	451.7
3.361	3	59.22	0.35	94.31	0.0067	4048	154.0	20.20	453.6
3.371	3	60.22	0.29	94.17	0.0042	3876	150.0	20.21	454.2
3.381	3	61.22	0.24	93.73	0.0038	3756	146.0	20.21	451.1
3.391	3	62.22	0.19	94.24	0.0072	4002	145.0	20.20	448.4
3.401	3	63.22	0.19	95.26	0.0079	4234	150.0	20.21	447.7
3.411	3	64.22	0.08	95.27	0.0078	4173	158.0	20.20	448.1
3.421	3	65.22	0.09	94.01	0.0017	3774	161.0	20.21	446.5
3.431	3	66.22	0.09	93.11	0.0012	3570	162.0	20.21	443.5
3.441	3	67.22	0.09	93.44	0.0041	3885	161.0	20.21	441.4
3.451	3	68.22	0.08	94.09	0.0089	3864	161.0	20.21	435.4
3.461	3	69.22	0.09	94.08	0.0031	3868	161.0	20.21	431.4
3.471	3	70.22	0.09	94.48	0.0048	3946	161.0	20.22	428.7
3.481	3	71.22	0.10	94.30	0.0020	3818	158.0	20.23	425.6
3.491	3	72.22	0.09	93.82	0.0011	3731	154.0	20.22	428.8
3.501	3	73.22	0.10	94.16	0.0029	3886	150.0	20.22	432.0
3.511	3	74.22	0.09	94.85	0.0024	3947	149.0	20.22	434.0
3.521	3	75.22	0.15	94.62	0.0013	3672	146.0	20.22	435.0
3.531	3	76.22	0.15	94.27	0.0010	3976	146.0	20.22	440.0
3.541	3	77.22	0.15	94.74	0.0015	3792	145.0	20.23	451.8
3.551	3	78.22	0.15	94.54	0.0014	4013	142.0	20.22	454.5
3.561	3	79.22	0.15	95.01	0.0008	3629	137.0	20.23	449.8
3.571	3	80.22	0.20	94.06	0.0007	3910	131.0	20.22	443.6
3.581	3	81.22	0.20	94.96	0.0018	4097	128.0	20.21	443.2
3.591	3	82.22	0.26	95.45	0.0020	4176	131.0	20.22	443.2
3.601	3	83.22	0.30	95.37	0.0014	4075	136.0	20.22	424.0
3.611	3	84.22	0.35	94.73	0.0006	3846	141.0	20.22	420.6
3.621	3	85.22	0.45	94.43	0.0004	3968	144.0	20.22	419.4
3.631	3	86.22	0.51	94.89	0.0007	4172	146.0	20.23	418.0
3.641	3	87.22	0.57	95.02	0.0005	3666	143.0	20.23	418.7
3.651	3	88.22	0.65	94.38	0.0003	4063	141.0	20.22	419.3
3.661	3	89.22	0.73	95.24	0.0011	4047	137.0	20.22	419.6
3.671	3	90.22	1.13	94.54	0.0003	3917	132.0	20.22	419.8
3.681	3	91.22	1.39	93.67	0.0002	3752	124.0	20.22	416.3
3.691	3	92.22	1.33	94.00	0.0004	4260	118.0	20.22	408.0
3.701	3	93.22	1.54	95.30	0.0021	4450	114.0	20.21	399.1
3.711	3	94.22	4.20	999.00	0.0000	4171	110.0	20.22	383.1
3.721	3	95.22	4.79	999.00	0.0000	3665	103.0	20.22	350.3
3.731	3	96.22	5.16	999.00	0.0000	4030	94.0	20.22	306.4
3.741	3	97.22	4.98	999.00	0.0000	4216	88.0	20.21	254.0
3.751	3	98.22	6.45	999.00	0.0000	4286	86.0	20.21	210.0
3.761	3	99.22	6.61	999.00	0.0000	5681	89.0	20.21	191.2
3.771	4	0.94	6.34	999.00	0.0000	6414	96.0	20.21	203.5
3.781	4	1.94	6.33	999.00	0.0000	4231	106.0	20.21	246.6
3.791	4	2.94	5.93	108.87	0.0004	3705	115.0	20.21	304.7
3.801	4	3.94	5.41	108.14	0.0001	3852	125.0	20.21	354.6
3.811	4	4.94	3.36	999.00	0.0000	3864	133.0	20.21	388.3
3.821	4	5.94	1.25	999.00	0.0000	3909	143.0	20.22	408.1
3.831	4	6.94	0.57	107.61	0.0004	4056	152.0	20.21	420.4
3.841	4	7.94	0.22	105.97	0.0002	3977	157.0	20.21	429.9
3.851	4	8.94	0.21	92.52	0.0004	3842	156.0	20.21	438.1
3.861	4	9.94	0.17	92.25	0.0022	3793	149.0	20.20	446.6
3.871	4	10.94	0.15	93.73	0.0157	3892	141.0	20.20	452.6
3.881	4	11.94	0.10	94.36	0.0104	3849	132.0	20.20	455.9
3.891	4	12.94	0.10	94.29	0.0075	3876	126.0	20.20	458.5
3.901	4	13.94	0.04	94.08	0.0064	3822	124.0	20.20	459.7
3.911	4	14.94	0.02	93.86	0.0067	3789	122.0	20.20	459.1
3.921	4	15.94	0.02	93.77	0.0101	3805	121.0	20.20	457.4
3.931	4	16.94	-0.02	93.82	0.0118	3920	121.0	20.20	455.2
3.941	4	17.94	-0.03	93.96	0.0100	3870	121.0	20.20	453.8
3.951	4	18.94	-0.03	93.85	0.0087	3854	121.0	20.20	454.3
3.961	4	19.94	-0.03	93.79	0.0105	3855	123.0	20.19	452.4
3.971	4	20.94	0.02	93.75	0.0114	3812	125.0	20.19	454.9
3.981	4	21.94	0.02	93.65	0.0107	3862	126.0	20.19	455.1
3.991	4	22.94	0.02	93.68	0.0115	3804	128.0	20.19	454.0
4.001	4	23.94	0.08	93.58	0.0108	3776	130.0	20.20	454.3
4.011	4	24.94	0.11	93.12	0.0156	3669	132.0	20.20	454.9
4.021	4	25.94	0.12	92.95	0.0135	3731	132.0	20.20	454.6
4.031	4	26.94	0.09	93.24	0.0128	3731	133.0	20.20	453.3
4.041	4	27.94	0.14	93.36	0.0125	3718	133.0	20.19	451.9
4.051	4	28.94	0.16	93.41	0.0134	3748	134.0	20.20	450.1
4.061	4	29.94	0.22	93.36	0.0129	3767	136.0	20.20	450.4
4.071	4	30.94	0.22	93.31	0.0122	3710	138.0	20.20	447.4
4.081	4	31.94	0.27	93.26	0.0097	3701	140.0	20.19	445.1
4.091	4	32.94	0.27	93.19	0.0103	3704	142.0	20.20	443.5
4.101	4	33.94	0.27	93.02	0.0107	3653	145.0	20.20	440.9
4.111	4	34.94	0.28	92.74	0.0099	3628	148.0	20.20	438.4
4.121	4	35.94	0.33	92.67	0.0085	3605	152.0	20.19	434.3
4.131	4	36.94	0.32	92.65	0.0085	3642	155.0	20.20	428.6
4.141	4	37.94	0.33	92.88	0.0072	3677	158.0	20.20	425.1
4.151	4	38.94	0.34	92.94	0.0071	3715	160.0	20.19	424.5
4.161	4	39.94	0.35	93.11	0.0077	3654	165.0	20.19	425.8
4.171	4	40.94	0.35	92.87	0.0073	3674	166.0	20.19	427.9
4.181	4	41.94	0.36	92.80	0.0061	3633	166.0	20.19	428.2
4.191	4	42.94	0.31	92.85	0.0065	3721	164.0	20.20	431.1
4.201	4	43.94	0.30	92.57	0.0056	3773	159.0	20.19	431.1
4.211	4	44.94	0.34	91.66	0.0030	3655	155.0	20.20	434.7
4.221	4	45.94	0.32	90.49	0.0029	3715	152.0	20.19	440.8
4.231	4	46.94	0.38	90.07	0.0036	3705	151.0	20.20	448.2
4.241	4	47.94	0.42	90.05	0.0032	3700	152.0	20.20	457.9
4.251	4	48.94	0.42	89.73	0.0031	3741	152.0	20.20	462.9
4.261	4	49.94	0.41	89.78	0.0044	3781	155.0	20.20	467.7
4.271	4	50.94	0.46	89.65	0.0037	3748	158.0	20.20	474.0
4.281	4	51.94	0.42	89.43	0.0043	3777	162.0	20.20	477.3
4.291	4	52.94	0.39	89.35	0.0036	3742	160.0	20.21	481.6
4.301	4	53.94	0.26	89.28	0.0035	3798	172.0	20.21	483.0
4.311	4	54.94	0.36	89.28	0.0038	3825	177.0	20.20	486.9
4.321	4	55.94	0.46	89.25	0.0040	3724	182.0	20.20	487.8
4.331	4	56.94	0.61	89.23	0.0032	3736	188.0	20.20	487.7
4.341	4	57.94	0.66	89.22	0.0022	3734	192.0	20.20	486.4
4.351	4	58.94	0.66	89.20	0.0018	3704	198.0	20.20	485.7
4.361	4	59.94	0.61	88.97	0.0023	3707	203.0	20.20	484.0
4.371	4	60.94	0.60	89.01	0.0023	3737	209.0	20.20	483.1
4.381	4	61.94	0.63	88.94	0.0018	3729	213.0	20.21	482.8
4.391	4	62.94	0.55	88.72	0.0018	3722	217.0	20.22	480.6
4.401	4	63.94	0.55	88.51	0.0021	3638	220.0	20.21	478.4
4.411	4	64.94	0.48	88.48	0.0021	3705	219.0	20.21	476.4
4.421	4	65.94	0.45	88.46	0.0021	3689	217.0	20.21	472.0
4.431	4	66.94	0.41	88.50	0.0029	3653	210.0	20.21	466.2
4.441	4	67.94	0.35	88.88	0.0019	3611	200.0	20.21	460.8
4.451	4	68.94	0.25	90.51	0.0022	3764	188.0	20.21	455.7
4.461	4	69.94	0.20	93.14	0.0057	3891	175.0	20.21	452.4
4.471	4	70.94	0.15	94.19	0.0086	3837	165.0	20.21	451.0
4.481	4	71.94	0.10	93.84	0.0075	3820	157.0	20.21	452.5
4.491	4	72.94	0.06	93.90	0.0072	3779	153.0	20.21	456.4
4.501	4	73.94	0.06	93.82	0.0078	3782	150.0	20.20	459.5
4.511	4	74.94	0.01	93.61	0.0082	3746	150.0	20.21	461.3
4.521	4	75.94	-0.04	93.32	0.0100	3764	149.0	20.21	461.4
4.531	4	76.94	-0.01	93.29	0.0113	3807	149.0	20.21	458.7
4.541	4	77.94	0.01	93.37	0.0160	3781	148.0	20.21	457.0
4.551	4	78.94	0.02	93.49	0.0127	3777	146.0	20.21	453.6
4.561	4	79.94	0.07	93.46	0.0110	3790	145.0	20.21	450.9
4.571	4	80.94	0.02	93.40	0.0106	3834	145.0	20.21	442.6
4.581	4	81.94	0.09	93.31	0.0111	3808	144.0	20.21	439.0
4.591	4	82.94	0.09	93.40	0.0124	3797	142.0	20.21	437.8
4.601	4	83.94	0.09	93.39	0.0145	3780	141.0	20.21	434.6
4.611	4	84.94	0.10	93.38	0.0142	3816	139.0	20.21	432.9
4.621	4	85.94	0.10	93.36	0.0140	3771	139.0	20.21	429.1
4.631	4	86.94	0.15	93.42	0.0124	3759	138.0	20.22	427.5
4.641	4	87.94	0.17	93.48	0.0107	3789	138.0	20.21	425.0
4.651	4	88.94	0.21	93.50	0.0103	3792	138.0	20.21	422.8
4.661	4	89.94	0.21	93.47	0.0103	3735	139.0	20.22	422.5
4.671	4	90.94	0.32	93.49	0.0116	3741	139.0	20.22	421.2
4.681	4	91.94	0.26	93.40	0.0119	3765	139.0	20.21	421.6
4.691	4	92.94	0.31	93.52	0.0122	3753	140.0	20.22	420.9
4.701	4	93.94	0.31	93.46	0.0133	3733	141.0	20.22	420.7
4.711	4	94.94	0.31	93.39	0.0120	3789	142.0	20.22	419.8
4.721	4	95.94	0.32	93.29	0.0105	3776	143.0	20.22	421.2
4.731	4	96.94	0.32	93.26	0.0116	3704	144.0	20.22	422.0
4.741	4	97.94	0.26	93.23	0.0130	3814	145.0	20.22	422.1
4.751	4	98.94	0.26	93.32	0.0151	3757	145.0	20.22	419.9
4.761	4	99.94	0.28	93.35	0.0169	3810	145.0	20.23	418.5
4.771	4	100.94	0.31	93.67	0.0207	3845	146.0	20.23	416.3
4.781	4	101.94	0.26	93.61	0.0167	3833	147.0	20.23	415.8
4.791	4	102.94	0.26	93.20	0.0086	3638	146.0	20.23	414.9
4.801	4	103.94	0.26	92.80	0.0074	3606	144.0	20.23	411.4
4.811	4	104.94	0.26	93.18	0.0179	3687	141.0	20.23	411.0
4.821	4	105.94	0.27	93.35	0.0114	3795	138.0	20.22	408.1
4.831	4	106.94	0.26	93.30	0.0153	3695	137.0	20.23	407.5
4.841	4	107.94	0.30	93.46	0.0147	3781	136.0	20.23	407.2
4.851	4	108.94	0.31	93.44	0.0134	3755	136.0	20.23	407.1
4.861	4	109.94	0.31	93.31	0.0146	3766	138.0	20.23	406.5
4.871	4	110.94	0.36	93.29	0.0137	3774	140.0	20.24	407.4
4.881	4	111.94	0.36	93.08	0.0138	3726	141.0	20.23	408.7
4.891	4	112.94	0.42	93.17	0.0084	3687	142.0	20.23	409.5
4.901	4	113.94	0.47	93.40	0.0031	3676	139.0	20.24	410.2
4.911	4	114.94	0.50	94.00	0.0021	3732	135.0	20.23	406.2
4.921	4	115.94	0.52	93.36	0.0068	3802	130.0	20.23	405.0
4.931	4	116.94	0.51	93.72	0.0151	3837	126.0	20.23	405.0
4.941	4	117.94	0.56	93.77	0.0151	3857	124.0	20.23	398.6
4.951	4	118.94	0.61	94.02	0.0150	3855	124.0	20.24	391.3
4.961	4	119.94	0.65	93.91	0.0124	3832	126.0	20.24	389.1
4.971	4	120.94	0.53	93.99	0.0103	3827	128.0	20.24	388.5
4.981	4	121.94	0.52	93.74	0.0074	3810	132.0	20.25	386.6
4.991	4	122.94	0.57	93.34	0.0028	3768	136.0	20.25	382.9
5.001	4	123.94	0.62	93.28	0.0018	3738	141.0	20.26	381.5
5.011	4	124.94	0.77	103.60	0.0020	3809	147.0	20.25	380.0
5.021	4	125.94	0.97	103.79	0.0014	3775	152.0	20.26	380.6
5.031	4	126.94	1.15	104.06	0.0004	3622	156.0	20.25	380.2
5.041	4	127.94	1.26	114.20	0.0002	3770	156.0	20.25	379.2
5.051	4	128.94	2.13	116.71	0.0001	3817	153.0	20.26	378.4
5.061	4	129.94	3.41	126.99	0.0001	3805	149.0	20.26	376.4
5.071	4	130.94	3.52	999.00	0.0000	3804	143.0	20.26	370.7
5.081	4	131.94	3.77	999.00	0.0000	3719	137.0	20.26	361.9
5.091	4	132.94	3.83	999.00	0.0000	3765	132.0	20.26	343.2
5.101	4	133.94	3.53	999.00	0.0000	3805	126.0	20.26	314.9
5.111	4	134.94	3.44	999.00	0.0000	3795	121.0	20.27	269.5
5.121	4	135.94	3.53	999.00	0.0000	3799	117.0	20.27	220.1
5.131	4	136.94	6.18	999.00	0.0000	3829	113.0	20.27	178.0
5.141	4	137.94	7.00	999.00	0.0000	5737	112.0	20.26	159.6
5.151	5	0.69	6.84	999.00	0.0000	7064	112.0	20.27	167.6
5.161	5	1.69	7.09	999.00	0.0000	3731	114.0	20.28	204.1
5.171	5	2.69	7.04	999.00	0.0000	3811	116.0	20.27	254.0
5.181	5	3.69	6.55	999.00	0.0000	3781	116.0	20.27	299.5
5.191	5	4.69	4.91	999.00	0.0000	3845	117.0	20.28	333.0
5.201	5	5.69	1.41	132.35	0.0001	3811	118.0	20.28	353.0
5.211	5	6.69	0.52	122.73	0.0001	3842	120.0	20.28	367.0
5.221	5	7.69	0.20	120.57	0.0001	3844	122.0	20.28	375.8
5.231	5	8.69	0.09	119.24	0.0003	3828	122.0	20.28	381.6
5.241	5	9.69	-0.14	122.08	0.0001	3833	122.0	20.28	386.5
5.251	5	10.69	-0.19	121.44	0.0005	3850	120.0	20.28	389.4
5.261	5	11.69	-0.19	92.25	0.0009	3826	108.0	20.28	392.9
5.271	5	12.69	-0.09	92.20	0.0019	3798	118.0	20.28	394.7
5.281	5	13.69	-0.05	93.00	0.0020	3854	118.0	20.28	396.7
5.291	5	14.69	0.01	93.20	0.0014	3779	120.0	20.29	398.2
5.301	5	15.69	0.07	92.45	0.0041	3801	120.0	20.29	401.1
5.311	5	16.69	0.15	92.56	0.0046	3737	121.0	20.29	403.9
5.321	5	17.69	0.21	92.62	0.0077	3820	121.0	20.29	405.6
5.331	5	18.69	0.31	92.89	0.0054	3779	121.0	20.28	408.3
5.341	5	19.69	0.41	92.88	0.0022	3742	121.0	20.28	409.7
5.351	5	20.69	0.43	93.03	0.0075	3732	120.0	20.28	410.8
5.361	5	21.69	0.53	93.50	0.0074	3819	119.0	20.28	411.1
5.371	5	22.69	0.61	93.78	0.0072	3800	118.0	20.27	412.1
5.381	5	23.69	0.61	93.76	0.0062	3758	119.0	20.28	412.7
5.391	5	24.69	0.67	93.36	0.0065	3727	121.0	20.28	413.1
5.401	5	25.69	0.70	93.10	0.0078	3677	121.0	20.28	412.8
5.411	5	26.69	0.71	92.87	0.0061	3692	121.0	20.28	413.8
5.421	5	27.69	0.67	92.61	0.0048	3625	120.0	20.28	415.0
5.431	5	28.69	0.71	93.08	0.0066	3829	117.0	20.28	415.1
5.441	5	29.69	0.70	93.64	0.0114	3797	116.0	20.27	417.3
5.451	5	30.69	0.73	93.78	0.0080	3790	115.0	20.28	416.9
5.461	5	31.69	0.70	94.03	0.0077	3812	115.0	20.28	416.4
5.471	5	32.69	0.71	94.15	0.0066	3792	116.0	20.28	417.2
5.481	5	33.69	0.71	93.96	0.0044	3778	115.0	20.28	415.4
5.491	5	34.69	0.66	94.03	0.0040	3761	116.0	20.28	413.5
5.501	5	35.69	0.61	93.64	0.0044	3702	117.0	20.28	410.4
5.511	5	36.69	0.50	93.50	0.0068	3731	117.0	20.28	404.9
5.521	5	37.69	0.49	93.70	0.0066	3801	117.0	20.28	397.5
5.531	5	38.69	0.47	93.66	0.0065	3761	117.0	20.27	394.6
5.541	5	39.69	0.46	93.64	0.0067	3795	116.0	20.28	391.8
5.551	5	40.69	0.41	93.68	0.0085	3806	115.0	20.28	391.1
5.561	5	41.69	0.36	93.66	0.0076	3813	114.0	20.28	389.4
5.571	5	42.69	0.41	93.68	0.0084	3828	112.0	20.28	388.5
5.581	5	43.69	0.36	93.75	0.0115	3858	111.0	20.28	387.2
5.591	5	44.69	0.36	93.76	0.0090	3842	110.0	20.28	386.7
5.601	5	45.69	0.36	93.69	0.0084	3825	111.0	20.28	385.9
5.611	5	46.69	0.36	93.63	0.0089	3777	112.0	20.28	387.2
5.621	5	47.69	0.36	93.58	0.0073	3773	111.0	20.28	386.6
5.631	5	48.69	0.39	93.52	0.0064	3752	110.0	20.28	388.1
5.641	5	49.69	0.47	93.76	0.0060	3741	111.0	20.28	386.5
5.651	5	50.69	0.51	93.75	0.0047	3796	111.0	20.28	388.1
5.661	5	51.69	0.51	93.87	0.0060	3781	111.0	20.28	388.7
5.671	5	52.69	0.55	94.05	0.0062	3814	110.0	20.28	389.6
5.681	5	53.69	0.61	94.05	0.0068	3814	111.0	20.28	391.0
5.691	5	54.69	0.76	93.99	0.0063	3787	112.0	20.29	391.4
5.701	5	55.69	0.92	93.78	0.0060	3739	112.0	20.28	391.2
5.711	5	56.69	1.13	93.74	0.0067	3767	113.0	20.27	392.4
5.721	5	57.69	1.13	93.87	0.0057	3766	114.0	20.27	393.4
5.731	5	58.69	1.12	93.98	0.0070	3760	116.0	20.27	392.1
5.741	5	59.69	1.13	93.94	0.0060	3759	118.0	20.28	390.8
5.751	5	60.69	1.10	93.71	0.0053	3786	120.0	20.27	391.6
5.761	5	61.69	1.08	93.58	0.0054	3692	123.0	20.28	392.3
5.771	5	62.69	0.98	93.57	0.0051	3733	125.0	20.28	392.6
5.781	5	63.69	0.93	93.77	0.0068	3817	127.0	20.28	391.9
5.791	5	64.69	0.82	93.78	0.0071	3785	130.0	20.27	390.4
5.801	5	65.69	0.81	93.71	0.0097	3776	132.0	20.28	389.9
5.811	5	66.69	0.76	93.34	0.0097	3747	133.0	20.28	388.5
5.821	5	67.69	0.72	92.91	0.0059	3686	134.0	20.28	387.8
5.831	5	68.69	0.50	92.89	0.0137	3756	134.0	20.28	386.2
5.841	5	69.69	0.45	93.31	0.0119	3789	136.0	20.28	384.1
5.851	5	70.69	0.40	93.23	0.0091	3727	140.0	20.27	379.8
5.861	5	71.69	0.35	93.13	0.0103	3781	147.0	20.27	373.6
5.871	5	72.69	0.40	93.10	0.0097	3746	157.0	20.28	367.7
5.881	5	73.69	0.40	92.12	0.0057	3666	168.0	20.28	364.1
5.891	5	74.69	0.35	90.19	0.0020	3662	179.0	20.29	360.2
5.901	5	75.69	0.34	88.14	0.0004	3934	187.0	21.45	357.1
5.911	5	76.69	0.33	87.27	0.0009	3939	189.0	21.50	355.8
5.921	5	77.69	0.32	87.80	0.0008	4009	185.0	21.47	357.2
5.931	5	78.69	0.25	88.77	0.0008	4064	175.0	21.53	361.7
5.941	5	79.69	0.30	89.69	0.0007	4057	161.0	21.63	367.1
5.951	5	80.69	0.30	92.96	0.0008	4020	146.0	21.71	379.2
5.961	5	81.69	0.30	92.87	0.0029	3749	133.0	21.77	390.9
5.971	5	82.69	0.31	93.36	0.0054	3842	124.0	21.83	400.0
5.981	5	83.69	0.30	93.80	0.0053	3924	119.0	21.89	405.7
5.991	5	84.69	0.35	94.03	0.0055	3922	115.0	21.95	410.2
6.001	5	85.69	0.40	94.02	0.0064	3839	114.0	22.00	414.4
6.011	5	86.69	0.43	94.03	0.0073	3846	113.0	22.04	418.9
6.021	5	87.69	0.49	93.73	0.0040	3780	112.0	22.09	404.7
6.031	5	88.69	0.55	93.65	0.0030	3818	110.0	22.14	404.9
6.041	5	89.69	0.65	93.89	0.0063	3858	108.0	22.19	404.2
6.051	5	90.69	0.71	94.04	0.0052	3840	107.0	22.23	402.8
6.061	5	91.69	0.75	93.96	0.0044	3827	108.0	22.28	400.5
6.071	5	92.69	0.83	94.03	0.0031	3818	109.0	22.33	398.9
6.081	5	93.69	0.93	94.29	0.0037	3863	110.0	22.37	399.1
6.091	5	94.69	1.00	94.30	0.0034	3856	112.0	22.41	397.2
6.101	5	95.69	1.12	93.30	0.0014	3661	113.0	22.45	396.9
6.111	5	96.69	2.36	92.58	0.0002	3566	113.0	22.50	395.8
6.121	5	97.69	2.20	93.63	0.0006	3855	112.0	22.53	394.0
6.131	5	98.69	2.57	999.00	0.0000	3804	111.0	22.58	390.7
6.141	5	99.69	3.12	94.82	0.0001	3855	109.0	22.64	384.2
6.151	5	100.69	3.28	94.19	0.0001	3806	108.0	22.69	374.9
6.161	5	101.69	3.57	94.78	0.0014	3722	108.0	22.73	358.2
6.171	5	102.69	3.27	93.33	0.0018	3637	106.0	22.77	331.4
6.181	5	103.69	3.42	93.42	0.0035	3600	103.0	22.81	288.9
6.191	5	104.69	3.43	92.89	0.0002	4211	97.0	22.87	226.2
6.201	5	105.69	3.41	999.00	0.0000	7811	87.0	22.91	153.7
6.211	5	106.69	3.00	124.65	0.0001	8950	74.0	22.96	91.6
6.221	5	107.69	2.37	999.00	0.0000	9533	56.0	22.99	61.1
