Geotek MSCL 7.9 - TN336_TC27-31.raw created at 5:09:17 on 1/24/2016.


Core Depth	Section	Sect Depth	CTD 	Tr. Time 	PW Amp   	A Gamma  	Mag Sus  	Temp     	NC Res   
m		cm	mm	µsec		cps	SI x 10^-5	°C	mV

-0.638	cal	0.00	2.21	999.00	0.0000	13802	0.0	20.87	6.3
-0.578	cal	6.00	2.27	96.89	0.0119	6575	-1.0	20.93	27.5
-0.518	cal	12.00	-0.18	95.53	0.0463	6740	-1.0	21.10	29.3
-0.458	cal	18.00	-0.03	95.74	0.0458	6661	-2.0	21.18	32.4
-0.398	cal	24.00	2.21	96.75	0.0010	6691	-1.0	18.53	39.0
-0.338	cal	30.00	2.97	97.03	0.0380	6604	-1.0	18.52	97.5
-0.278	cal	36.00	2.90	96.05	0.0078	6297	-2.0	18.52	571.7
-0.218	cal	42.00	0.54	95.16	0.0042	6588	-1.0	18.52	752.6
-0.158	cal	48.00	0.31	95.24	0.0267	6548	-1.0	18.54	787.0
-0.098	cal	54.00	1.50	95.79	0.0031	6596	-1.0	18.54	787.3
-0.038	cal	60.00	2.84	96.42	0.0082	6589	2.0	18.55	597.5
0.002	1	0.20	6.51	999.00	0.0000	8376	11.0	18.56	264.6
0.012	1	1.20	7.07	96.76	0.0002	5247	13.0	18.56	336.6
0.022	1	2.20	7.39	97.99	0.0002	5224	16.0	18.57	443.2
0.032	1	3.20	7.15	98.20	0.0016	5163	17.0	18.57	538.1
0.042	1	4.20	6.58	98.26	0.0003	5157	19.0	18.57	602.1
0.052	1	5.20	2.16	95.39	0.0007	5130	19.0	18.58	642.1
0.062	1	6.20	0.81	94.85	0.0029	4945	20.0	18.58	664.6
0.072	1	7.20	-0.11	94.14	0.0033	4812	21.0	18.58	676.7
0.082	1	8.20	-0.27	93.81	0.0102	4856	21.0	18.58	684.1
0.092	1	9.20	-0.33	94.09	0.0114	4973	21.0	18.58	689.1
0.102	1	10.20	-0.38	94.52	0.0188	5143	21.0	18.58	692.6
0.112	1	11.20	-0.38	94.84	0.0201	5130	21.0	18.58	696.0
0.122	1	12.20	-0.34	95.25	0.0230	5271	21.0	18.58	701.5
0.132	1	13.20	-0.33	95.31	0.0212	5159	20.0	18.59	708.3
0.142	1	14.20	-0.25	95.36	0.0155	5278	20.0	18.58	714.7
0.152	1	15.20	-0.23	95.31	0.0164	5303	20.0	18.59	720.5
0.162	1	16.20	-0.19	95.30	0.0151	5201	20.0	18.59	726.5
0.172	1	17.20	-0.19	95.42	0.0163	5149	20.0	18.59	731.2
0.182	1	18.20	-0.14	95.55	0.0145	5145	20.0	18.59	732.7
0.192	1	19.20	-0.06	95.48	0.0139	5202	20.0	18.59	731.9
0.202	1	20.20	-0.04	95.43	0.0159	5314	20.0	18.60	727.1
0.212	1	21.20	-0.09	95.21	0.0178	5342	20.0	18.59	723.8
0.222	1	22.20	0.01	95.29	0.0225	5204	20.0	18.60	719.8
0.232	1	23.20	0.03	95.40	0.0125	5100	20.0	18.60	713.6
0.242	1	24.20	0.06	95.27	0.0115	5111	20.0	18.60	707.3
0.252	1	25.20	0.11	95.33	0.0112	5087	20.0	18.60	696.3
0.262	1	26.20	0.10	95.23	0.0132	5047	20.0	18.61	691.0
0.272	1	27.20	0.17	95.25	0.0140	4999	21.0	18.60	686.1
0.282	1	28.20	0.20	95.21	0.0122	4935	20.0	18.60	686.5
0.292	1	29.20	0.21	95.16	0.0140	4978	21.0	18.61	685.7
0.302	1	30.20	0.21	95.34	0.0140	5118	20.0	18.61	682.5
0.312	1	31.20	0.25	95.25	0.0119	5139	19.0	18.61	669.2
0.322	1	32.20	0.30	95.35	0.0135	5111	19.0	18.61	665.3
0.332	1	33.20	0.36	95.60	0.0139	5087	19.0	18.62	656.9
0.342	1	34.20	0.32	95.55	0.0129	5004	19.0	18.62	646.5
0.352	1	35.20	0.41	95.64	0.0113	4972	19.0	18.63	634.5
0.362	1	36.20	0.41	95.66	0.0119	4895	19.0	18.62	622.5
0.372	1	37.20	0.36	95.47	0.0091	4815	19.0	18.63	610.0
0.382	1	38.20	0.42	95.66	0.0085	4855	19.0	18.62	599.8
0.392	1	39.20	0.37	95.72	0.0076	4875	20.0	18.63	592.4
0.402	1	40.20	0.33	95.55	0.0085	4864	19.0	18.63	585.2
0.412	1	41.20	0.38	95.38	0.0135	4923	20.0	18.63	577.5
0.422	1	42.20	0.37	95.62	0.0110	4872	19.0	18.64	569.7
0.432	1	43.20	0.47	95.69	0.0128	4994	20.0	18.63	565.2
0.442	1	44.20	0.49	95.77	0.0124	4968	20.0	18.63	564.0
0.452	1	45.20	0.47	95.72	0.0109	5087	20.0	18.64	566.1
0.462	1	46.20	0.53	95.63	0.0133	5078	20.0	18.65	567.2
0.472	1	47.20	0.45	95.59	0.0215	5034	21.0	18.64	568.1
0.482	1	48.20	0.38	95.60	0.0157	5109	21.0	18.65	566.0
0.492	1	49.20	0.57	95.65	0.0140	5151	21.0	18.65	564.0
0.502	1	50.20	0.44	95.37	0.0158	4800	22.0	18.69	563.6
0.512	1	51.20	0.46	94.86	0.0052	4434	22.0	18.68	565.6
0.522	1	52.20	0.50	94.48	0.0064	4765	21.0	18.69	571.1
0.532	1	53.20	0.50	95.19	0.0191	4807	20.0	18.69	575.0
0.542	1	54.20	0.56	95.63	0.0136	5016	19.0	18.70	575.3
0.552	1	55.20	0.52	95.68	0.0168	5014	19.0	18.69	572.6
0.562	1	56.20	0.53	95.69	0.0242	4985	18.0	18.70	573.6
0.572	1	57.20	0.48	95.71	0.0199	4908	18.0	18.70	579.5
0.582	1	58.20	0.47	95.65	0.0224	4915	17.0	18.70	587.8
0.592	1	59.20	0.45	95.63	0.0145	4880	17.0	18.70	596.6
0.602	1	60.20	0.45	95.64	0.0168	4936	17.0	18.70	602.1
0.612	1	61.20	0.42	95.78	0.0172	5008	17.0	18.70	603.7
0.622	1	62.20	0.40	95.70	0.0159	5041	16.0	18.70	601.4
0.632	1	63.20	0.38	95.69	0.0168	5022	16.0	18.70	595.9
0.642	1	64.20	0.40	95.69	0.0158	4980	16.0	18.70	591.0
0.652	1	65.20	0.35	95.69	0.0123	4891	16.0	18.71	589.3
0.662	1	66.20	0.40	95.72	0.0130	4965	16.0	18.70	584.8
0.672	1	67.20	0.44	95.74	0.0122	4997	16.0	18.70	593.4
0.682	1	68.20	0.47	95.61	0.0122	4803	16.0	18.71	586.0
0.692	1	69.20	0.49	95.45	0.0139	4743	17.0	18.71	578.9
0.702	1	70.20	0.57	95.39	0.0115	4717	16.0	18.71	548.4
0.712	1	71.20	0.63	95.42	0.0129	4752	17.0	18.71	548.4
0.722	1	72.20	0.68	95.38	0.0126	4805	17.0	18.71	548.5
0.732	1	73.20	0.78	95.45	0.0191	4871	16.0	18.71	551.8
0.742	1	74.20	0.83	95.75	0.0190	4926	17.0	18.72	555.0
0.752	1	75.20	0.93	95.78	0.0140	4874	17.0	18.72	556.1
0.762	1	76.20	0.98	95.69	0.0116	4891	17.0	18.72	558.1
0.772	1	77.20	1.03	95.78	0.0132	5082	17.0	18.73	551.5
0.782	1	78.20	1.14	96.03	0.0130	5144	17.0	18.73	550.4
0.792	1	79.20	1.44	96.05	0.0091	4959	17.0	18.72	548.9
0.802	1	80.20	1.60	96.11	0.0132	4958	18.0	18.72	544.0
0.812	1	81.20	2.56	96.55	0.0010	4925	18.0	18.73	537.0
0.822	1	82.20	3.03	97.34	0.0014	4937	18.0	18.74	528.2
0.832	1	83.20	3.46	97.30	0.0001	4782	19.0	18.74	512.3
0.842	1	84.20	3.42	97.28	0.0011	4775	19.0	18.74	486.9
0.852	1	85.20	3.02	97.04	0.0007	4774	19.0	18.74	450.5
0.862	1	86.20	2.79	96.52	0.0010	4679	19.0	18.74	397.7
0.872	1	87.20	2.86	96.50	0.0007	4699	19.0	18.74	330.1
0.882	1	88.20	3.70	96.81	0.0012	4808	18.0	18.74	262.0
0.892	1	89.20	5.54	999.00	0.0000	4858	17.0	18.74	215.1
0.902	2	0.25	6.08	999.00	0.0000	10713	17.0	18.75	193.0
0.912	2	1.25	7.02	999.00	0.0000	5455	16.0	18.74	192.0
0.922	2	2.25	7.23	999.00	0.0000	4804	17.0	18.75	211.7
0.932	2	3.25	6.92	999.00	0.0000	4817	16.0	18.75	252.0
0.942	2	4.25	6.34	999.00	0.0000	4801	17.0	18.75	313.3
0.952	2	5.25	2.00	95.15	0.0005	4881	14.0	18.76	380.4
0.962	2	6.25	0.45	95.69	0.0057	4873	17.0	18.76	437.9
0.972	2	7.25	-0.34	94.86	0.0031	4774	18.0	18.76	479.0
0.982	2	8.25	-0.44	94.90	0.0150	4749	19.0	18.76	505.4
0.992	2	9.25	-0.50	94.46	0.0164	4537	19.0	18.76	522.1
1.002	2	10.25	-0.50	93.78	0.0088	4304	19.0	18.76	531.4
1.012	2	11.25	-0.50	93.24	0.0079	4668	18.0	18.76	535.0
1.022	2	12.25	-0.50	94.53	0.0288	4787	18.0	18.76	538.6
1.032	2	13.25	-0.45	95.06	0.0259	4792	19.0	18.76	542.5
1.042	2	14.25	-0.49	95.02	0.0263	4864	19.0	18.76	546.9
1.052	2	15.25	-0.40	95.23	0.0290	4756	19.0	18.77	552.4
1.062	2	16.25	-0.38	95.26	0.0241	4794	18.0	18.77	556.7
1.072	2	17.25	-0.30	95.23	0.0266	4800	19.0	18.77	558.5
1.082	2	18.25	-0.25	95.25	0.0294	4896	19.0	18.77	558.8
1.092	2	19.25	-0.23	95.29	0.0323	4897	19.0	18.77	560.0
1.102	2	20.25	-0.15	95.24	0.0299	4900	19.0	18.77	563.0
1.112	2	21.25	-0.09	95.03	0.0260	4567	19.0	18.77	567.6
1.122	2	22.25	-0.04	94.08	0.0157	4480	18.0	18.78	572.4
1.132	2	23.25	0.01	94.03	0.0226	4461	18.0	18.78	575.9
1.142	2	24.25	0.12	94.51	0.0223	4638	10.0	18.78	579.9
1.152	2	25.25	0.11	95.06	0.0383	4974	18.0	18.78	584.9
1.162	2	26.25	0.11	95.68	0.0352	5023	17.0	18.78	590.4
1.172	2	27.25	0.16	95.79	0.0240	4956	17.0	18.78	594.2
1.182	2	28.25	0.15	95.79	0.0225	4970	16.0	18.78	596.3
1.192	2	29.25	0.15	95.86	0.0200	4901	16.0	18.78	599.9
1.202	2	30.25	0.16	95.63	0.0159	4761	16.0	18.78	602.2
1.212	2	31.25	0.26	95.61	0.0172	4869	16.0	18.79	597.2
1.222	2	32.25	0.26	95.70	0.0197	4892	16.0	18.78	593.2
1.232	2	33.25	0.26	95.65	0.0228	4836	16.0	18.78	588.7
1.242	2	34.25	0.26	95.65	0.0192	4842	15.0	18.79	584.2
1.252	2	35.25	0.26	95.66	0.0172	4871	16.0	18.79	579.0
1.262	2	36.25	0.29	95.72	0.0187	4872	15.0	18.79	573.2
1.272	2	37.25	0.27	95.75	0.0207	4974	15.0	18.79	569.4
1.282	2	38.25	0.34	95.87	0.0224	4973	14.0	18.79	567.7
1.292	2	39.25	0.30	96.01	0.0171	4998	14.0	18.79	571.0
1.302	2	40.25	0.30	96.00	0.0146	5049	14.0	18.80	571.3
1.312	2	41.25	0.29	96.00	0.0148	4972	14.0	18.80	569.3
1.322	2	42.25	0.26	95.95	0.0164	5011	14.0	18.80	565.6
1.332	2	43.25	0.21	95.80	0.0173	4941	14.0	18.80	561.7
1.342	2	44.25	0.16	95.69	0.0302	4967	14.0	18.81	558.1
1.352	2	45.25	0.08	95.69	0.0206	4934	14.0	18.81	554.8
1.362	2	46.25	0.11	95.67	0.0209	4988	14.0	18.81	551.6
1.372	2	47.25	0.12	95.75	0.0210	4967	14.0	18.81	548.7
1.382	2	48.25	0.11	95.81	0.0212	4931	14.0	18.82	544.3
1.392	2	49.25	0.36	95.78	0.0225	4909	14.0	18.82	540.5
1.402	2	50.25	0.41	95.90	0.0201	4844	14.0	18.99	537.3
1.412	2	51.25	0.42	95.76	0.0199	4829	15.0	18.86	533.8
1.422	2	52.25	0.51	95.33	0.0229	4550	15.0	18.83	531.7
1.432	2	53.25	0.51	94.61	0.0116	4424	14.0	19.01	533.1
1.442	2	54.25	0.59	94.89	0.0142	4574	14.0	19.37	536.7
1.452	2	55.25	0.62	95.54	0.0178	4906	13.0	19.68	541.0
1.462	2	56.25	0.57	95.87	0.0291	4892	13.0	19.93	546.2
1.472	2	57.25	0.61	95.86	0.0264	4952	13.0	20.12	549.6
1.482	2	58.25	0.60	96.06	0.0192	4902	13.0	20.27	551.8
1.492	2	59.25	0.59	95.91	0.0181	4904	12.0	20.39	553.1
1.502	2	60.25	0.62	96.05	0.0179	4894	12.0	20.50	554.9
1.512	2	61.25	0.65	96.07	0.0169	4944	11.0	20.59	561.2
1.522	2	62.25	0.62	96.02	0.0205	4987	11.0	20.67	558.8
1.532	2	63.25	0.65	96.04	0.0279	4926	11.0	20.74	547.2
1.542	2	64.25	0.63	95.98	0.0288	5010	11.0	20.79	528.5
1.552	2	65.25	0.68	96.00	0.0327	5108	11.0	20.84	530.1
1.562	2	66.25	0.78	96.11	0.0254	4963	11.0	20.88	529.7
1.572	2	67.25	0.83	96.07	0.0243	4915	11.0	20.92	528.9
1.582	2	68.25	0.88	96.03	0.0376	5008	11.0	20.97	528.2
1.592	2	69.25	0.93	96.02	0.0289	5045	11.0	21.01	527.2
1.602	2	70.25	0.98	96.14	0.0225	4946	10.0	21.04	517.8
1.612	2	71.25	1.01	96.07	0.0304	5006	11.0	21.08	512.0
1.622	2	72.25	1.13	96.07	0.0273	4920	10.0	21.12	506.9
1.632	2	73.25	1.40	96.15	0.0229	4975	11.0	21.16	500.7
1.642	2	74.25	1.60	96.26	0.0033	4962	10.0	21.20	499.1
1.652	2	75.25	2.84	98.85	0.0001	4940	9.0	21.24	497.3
1.662	2	76.25	3.00	999.00	0.0000	4968	10.0	21.27	487.3
1.672	2	77.25	2.81	999.00	0.0000	4823	9.0	21.30	459.1
1.682	2	78.25	2.56	999.00	0.0000	4836	9.0	21.34	412.0
1.692	2	79.25	2.65	999.00	0.0000	4898	8.0	21.36	346.9
1.702	2	80.25	2.46	999.00	0.0000	4868	8.0	21.38	268.8
1.712	2	81.25	3.27	97.27	0.0009	4839	7.0	21.40	195.6
1.722	2	82.25	2.43	96.07	0.0050	6708	5.0	21.43	143.3
1.732	2	83.25	2.00	999.00	0.0000	13358	3.0	21.47	112.2
