Geotek MSCL 7.9 - TN336_TC5-05.raw created at 10:08:17 on 1/20/2016.


Core Depth	Section	Sect Depth	CTD 	Tr. Time 	PW Amp   	A Gamma  	Mag Sus  	Temp     	NC Res   
m		cm	mm	µsec		cps	SI x 10^-5	°C	mV

-0.639	before cal	-0.02	2.52	999.00	0.0000	2027	-1.0	21.52	6.6
-0.579	cal	5.98	0.12	96.21	0.0156	1878	-2.0	21.48	27.9
-0.519	cal	11.98	-2.48	95.64	0.0232	1933	-1.0	21.42	28.6
-0.459	cal	17.98	-2.25	95.67	0.0209	1947	-2.0	21.41	30.4
-0.399	cal	23.98	-0.02	96.53	0.0018	1944	-2.0	21.17	38.7
-0.339	cal	29.98	1.04	97.23	0.0211	1969	-2.0	21.15	100.6
-0.279	cal	35.98	1.07	96.43	0.0041	1878	-1.0	21.14	589.5
-0.219	cal	41.98	-1.78	94.92	0.0034	1931	-1.0	21.13	804.8
-0.159	cal	47.98	-2.02	94.92	0.0183	2008	-1.0	21.12	806.9
-0.099	cal	53.98	-0.81	95.41	0.0089	1994	-1.0	21.10	814.2
-0.039	cal	59.98	0.55	96.04	0.0072	1944	1.0	21.11	606.8
0.001	1	0.10	2.94	999.00	0.0000	1591	10.0	21.12	275.3
0.011	1	1.10	3.34	97.11	0.0011	1526	12.0	21.12	362.3
0.021	1	2.10	5.61	98.81	0.0005	1508	15.0	21.12	485.1
0.031	1	3.10	5.52	99.26	0.0015	1547	16.0	21.12	588.8
0.041	1	4.10	5.13	999.00	0.0000	1565	16.0	21.10	661.8
0.051	1	5.10	1.51	999.00	0.0000	1558	17.0	21.10	707.1
0.061	1	6.10	0.44	96.44	0.0034	1602	17.0	21.11	730.4
0.071	1	7.10	-1.71	95.00	0.0065	1590	17.0	21.11	742.4
0.081	1	8.10	-2.09	95.25	0.0167	1589	18.0	21.22	746.0
0.091	1	9.10	-2.10	95.26	0.0172	1563	18.0	21.23	747.8
0.101	1	10.10	-2.10	95.30	0.0150	1499	17.0	21.23	747.3
0.111	1	11.10	-2.10	95.29	0.0142	1527	17.0	21.25	742.3
0.121	1	12.10	-2.14	95.21	0.0142	1479	17.0	21.24	736.7
0.131	1	13.10	-2.10	95.20	0.0132	1459	16.0	21.25	727.7
0.141	1	14.10	-2.15	95.20	0.0130	1470	16.0	21.25	717.8
0.151	1	15.10	-2.15	95.02	0.0131	1435	15.0	21.26	709.0
0.161	1	16.10	-2.15	95.22	0.0154	1465	15.0	21.26	704.4
0.171	1	17.10	-2.17	95.07	0.0129	1521	14.0	21.26	697.6
0.181	1	18.10	-2.19	95.05	0.0148	1464	13.0	21.27	686.1
0.191	1	19.10	-2.20	95.22	0.0149	1441	13.0	21.28	675.5
0.201	1	20.10	-2.24	95.11	0.0160	1377	12.0	21.27	666.2
0.211	1	21.10	-2.27	94.91	0.0137	1290	12.0	21.28	661.5
0.221	1	22.10	-2.33	94.33	0.0091	1322	11.0	21.28	654.1
0.231	1	23.10	-2.39	94.16	0.0142	1352	12.0	21.29	649.9
0.241	1	24.10	-2.35	94.25	0.0155	1348	12.0	21.30	649.1
0.251	1	25.10	-2.40	94.53	0.0165	1437	11.0	21.30	651.2
0.261	1	26.10	-2.31	94.90	0.0158	1363	12.0	21.29	655.9
0.271	1	27.10	-2.20	94.92	0.0107	1406	12.0	21.30	662.6
0.281	1	28.10	-2.13	94.91	0.0129	1535	13.0	21.30	646.8
0.291	1	29.10	-2.08	95.29	0.0193	1529	14.0	21.31	674.2
0.301	1	30.10	-2.08	95.44	0.0161	1491	14.0	21.32	677.1
0.311	1	31.10	-1.98	95.49	0.0134	1525	15.0	21.31	649.0
0.321	1	32.10	-1.88	95.51	0.0156	1477	14.0	21.32	648.3
0.331	1	33.10	-1.89	95.60	0.0153	1479	15.0	21.33	650.0
0.341	1	34.10	-1.79	95.56	0.0150	1497	14.0	21.33	650.7
0.351	1	35.10	-1.52	95.70	0.0138	1470	14.0	21.33	639.2
0.361	1	36.10	-1.42	96.00	0.0131	1495	14.0	21.34	632.3
0.371	1	37.10	-1.12	95.65	0.0051	1474	15.0	21.35	622.7
0.381	1	38.10	-0.53	96.28	0.0027	1444	14.0	21.34	613.2
0.391	1	39.10	1.71	97.36	0.0010	1459	14.0	21.35	602.7
0.401	1	40.10	1.77	97.92	0.0004	1435	14.0	21.36	594.8
0.411	1	41.10	1.69	97.02	0.0004	1421	14.0	21.37	583.4
0.421	1	42.10	1.50	97.09	0.0017	1439	13.0	21.37	566.0
0.431	1	43.10	1.02	96.83	0.0028	1448	14.0	21.37	531.1
0.441	1	44.10	0.70	96.80	0.0004	1465	13.0	21.38	477.5
0.451	1	45.10	0.26	96.60	0.0012	1466	12.0	21.38	395.9
0.461	1	46.10	4.19	999.00	0.0000	1541	12.0	21.39	306.5
0.471	1	47.10	4.52	999.00	0.0000	3121	12.0	21.39	248.7
0.481	2	0.30	4.48	999.00	0.0000	1453	11.0	21.40	249.3
0.491	2	1.30	4.58	999.00	0.0000	1452	11.0	21.40	305.3
0.501	2	2.30	4.57	999.00	0.0000	1423	11.0	21.41	396.7
0.511	2	3.30	4.26	122.39	0.0002	1503	11.0	21.41	488.1
0.521	2	4.30	3.71	999.00	0.0000	1481	11.0	21.42	559.4
0.531	2	5.30	-0.34	96.02	0.0013	1503	12.0	21.42	606.9
0.541	2	6.30	-1.22	96.58	0.0002	1502	11.0	21.43	634.5
0.551	2	7.30	-1.80	95.18	0.0029	1488	12.0	21.43	652.5
0.561	2	8.30	-2.04	95.33	0.0059	1499	12.0	21.44	662.2
0.571	2	9.30	-2.10	95.26	0.0041	1495	11.0	21.44	667.1
0.581	2	10.30	-2.10	95.29	0.0067	1498	12.0	21.44	670.3
0.591	2	11.30	-2.10	95.23	0.0118	1478	12.0	21.45	671.4
0.601	2	12.30	-2.21	95.35	0.0121	1510	11.0	21.45	674.7
0.611	2	13.30	-2.26	95.43	0.0094	1529	12.0	21.46	678.0
0.621	2	14.30	-2.22	95.36	0.0132	1544	11.0	21.46	681.0
0.631	2	15.30	-2.43	95.36	0.0138	1497	11.0	21.46	683.9
0.641	2	16.30	-2.48	95.31	0.0107	1491	12.0	21.47	679.8
0.651	2	17.30	-2.38	95.28	0.0163	1483	12.0	21.47	678.2
0.661	2	18.30	-2.44	95.41	0.0163	1505	13.0	21.48	675.2
0.671	2	19.30	-2.45	95.32	0.0127	1497	12.0	21.49	676.3
0.681	2	20.30	-2.39	95.23	0.0151	1478	12.0	21.49	680.8
0.691	2	21.30	-2.38	95.26	0.0146	1505	12.0	21.50	686.2
0.701	2	22.30	-2.34	95.22	0.0124	1512	13.0	21.50	687.9
0.711	2	23.30	-2.35	95.14	0.0109	1448	12.0	21.50	691.5
0.721	2	24.30	-2.29	95.16	0.0093	1485	12.0	21.51	693.0
0.731	2	25.30	-2.24	95.19	0.0058	1500	13.0	21.52	696.7
0.741	2	26.30	-2.21	95.21	0.0066	1469	12.0	21.53	699.9
0.751	2	27.30	-2.20	95.34	0.0153	1464	13.0	21.54	703.4
0.761	2	28.30	-2.30	95.58	0.0132	1466	12.0	21.54	704.6
0.771	2	29.30	-2.20	95.63	0.0115	1456	12.0	21.54	703.5
0.781	2	30.30	-2.21	95.64	0.0121	1471	11.0	21.55	699.5
0.791	2	31.30	-2.19	95.58	0.0122	1443	11.0	21.55	692.1
0.801	2	32.30	-2.24	95.61	0.0124	1488	12.0	21.55	684.3
0.811	2	33.30	-2.19	95.55	0.0131	1472	12.0	21.56	680.8
0.821	2	34.30	-2.23	95.46	0.0133	1434	13.0	21.57	674.6
0.831	2	35.30	-2.18	95.39	0.0167	1449	13.0	21.58	668.3
0.841	2	36.30	-2.13	95.53	0.0172	1419	13.0	21.58	657.0
0.851	2	37.30	-2.13	95.46	0.0147	1470	13.0	21.58	640.3
0.861	2	38.30	-2.08	95.54	0.0165	1482	12.0	21.59	625.9
0.871	2	39.30	-2.08	95.60	0.0160	1461	13.0	21.59	617.5
0.881	2	40.30	-2.08	95.61	0.0172	1469	13.0	21.59	611.9
0.891	2	41.30	-2.08	95.70	0.0175	1472	13.0	21.60	610.5
0.901	2	42.30	-2.13	95.74	0.0143	1464	12.0	21.60	611.2
0.911	2	43.30	-2.08	95.68	0.0142	1455	13.0	21.61	609.4
0.921	2	44.30	-2.08	95.77	0.0144	1446	12.0	21.61	604.2
0.931	2	45.30	-2.05	95.74	0.0106	1474	12.0	21.61	601.6
0.941	2	46.30	-2.02	95.68	0.0110	1493	12.0	21.62	597.8
0.951	2	47.30	-1.96	95.74	0.0098	1443	12.0	21.62	596.5
0.961	2	48.30	-2.02	95.62	0.0074	1452	12.0	21.62	597.1
0.971	2	49.30	-1.96	95.42	0.0098	1479	12.0	21.63	594.9
0.981	2	50.30	-1.93	95.59	0.0145	1476	12.0	21.63	597.2
0.991	2	51.30	-2.04	95.72	0.0133	1463	12.0	21.64	594.5
1.001	2	52.30	-2.03	95.69	0.0101	1468	12.0	21.64	590.6
1.011	2	53.30	-1.90	95.65	0.0119	1438	12.0	21.64	590.9
1.021	2	54.30	-1.98	95.65	0.0155	1431	12.0	21.65	590.3
1.031	2	55.30	-1.89	95.76	0.0148	1470	12.0	21.64	592.7
1.041	2	56.30	-1.74	95.82	0.0141	1429	12.0	21.65	595.6
1.051	2	57.30	-2.31	95.63	0.0162	1450	12.0	21.65	594.5
1.061	2	58.30	-2.31	95.48	0.0163	1478	11.0	21.65	597.9
1.071	2	59.30	-2.26	95.59	0.0167	1428	12.0	21.66	600.2
1.081	2	60.30	-2.26	95.56	0.0166	1462	12.0	21.66	597.2
1.091	2	61.30	-2.36	95.38	0.0228	1425	11.0	21.67	596.0
1.101	2	62.30	-2.40	95.34	0.0223	1414	11.0	21.67	594.3
1.111	2	63.30	-2.46	95.36	0.0205	1451	11.0	21.67	592.2
1.121	2	64.30	-2.51	95.29	0.0178	1445	11.0	21.68	590.5
1.131	2	65.30	-2.52	95.30	0.0168	1433	11.0	21.67	589.8
1.141	2	66.30	-2.61	95.32	0.0143	1450	10.0	21.68	588.8
1.151	2	67.30	-2.55	95.29	0.0134	1399	10.0	21.68	587.5
1.161	2	68.30	-2.71	95.25	0.0150	1461	10.0	21.68	587.1
1.171	2	69.30	-2.67	95.28	0.0153	1435	10.0	21.69	585.0
1.181	2	70.30	-2.64	95.31	0.0156	1461	10.0	21.69	583.2
1.191	2	71.30	-2.68	95.30	0.0156	1428	10.0	21.70	584.0
1.201	2	72.30	-2.40	95.36	0.0142	1469	10.0	21.70	585.9
1.211	2	73.30	-2.45	95.28	0.0155	1465	9.0	21.71	585.0
1.221	2	74.30	-2.55	95.33	0.0209	1458	10.0	21.70	584.2
1.231	2	75.30	-2.44	95.31	0.0199	1467	10.0	21.71	583.4
1.241	2	76.30	-2.55	95.34	0.0197	1452	10.0	21.71	586.3
1.251	2	77.30	-2.59	95.31	0.0194	1474	10.0	21.71	590.6
1.261	2	78.30	-2.56	95.31	0.0207	1463	10.0	21.72	593.8
1.271	2	79.30	-2.60	95.25	0.0199	1458	9.0	21.72	597.7
1.281	2	80.30	-2.66	95.26	0.0197	1455	10.0	21.72	598.6
1.291	2	81.30	-2.61	95.21	0.0229	1461	9.0	21.72	602.6
1.301	2	82.30	-2.55	95.22	0.0198	1443	10.0	21.71	603.4
1.311	2	83.30	-2.52	95.23	0.0192	1440	10.0	21.71	603.9
1.321	2	84.30	-2.44	95.33	0.0186	1463	10.0	21.70	603.8
1.331	2	85.30	-2.38	95.44	0.0170	1459	9.0	21.70	602.3
1.341	2	86.30	-2.33	95.50	0.0146	1458	9.0	21.69	599.4
1.351	2	87.30	-2.22	95.62	0.0161	1445	9.0	21.68	596.7
1.361	2	88.30	-2.12	95.64	0.0172	1411	9.0	21.66	596.4
1.371	2	89.30	-2.10	95.62	0.0166	1455	9.0	21.66	597.1
1.381	2	90.30	-2.10	95.61	0.0144	1423	9.0	21.65	596.0
1.391	2	91.30	-2.09	95.51	0.0147	1434	9.0	21.64	593.5
1.401	2	92.30	-2.10	95.63	0.0157	1434	10.0	21.63	594.4
1.411	2	93.30	-2.10	95.68	0.0158	1442	9.0	21.62	597.2
1.421	2	94.30	-2.08	95.66	0.0160	1438	9.0	21.60	597.5
1.431	2	95.30	-2.07	95.66	0.0156	1413	9.0	21.59	599.5
1.441	2	96.30	-2.10	95.64	0.0159	1447	9.0	21.58	599.4
1.451	2	97.30	-2.09	95.67	0.0155	1391	10.0	21.57	600.9
1.461	2	98.30	-2.10	95.66	0.0149	1426	9.0	21.55	600.2
1.471	2	99.30	-2.15	95.67	0.0145	1419	9.0	21.53	597.7
1.481	2	100.30	-2.15	95.65	0.0143	1464	10.0	21.52	596.6
1.491	2	101.30	-2.15	95.67	0.0138	1429	10.0	21.51	594.1
1.501	2	102.30	-2.16	95.70	0.0124	1449	9.0	21.50	591.6
1.511	2	103.30	-2.15	95.63	0.0087	1412	9.0	21.48	589.4
1.521	2	104.30	-2.15	95.49	0.0120	1372	10.0	21.47	587.9
1.531	2	105.30	-2.11	95.50	0.0110	1415	9.0	21.45	590.0
1.541	2	106.30	-2.15	95.51	0.0122	1395	9.0	21.44	593.0
1.551	2	107.30	-2.15	95.63	0.0118	1419	9.0	21.42	593.5
1.561	2	108.30	-2.16	95.60	0.0123	1443	9.0	21.42	594.6
1.571	2	109.30	-2.16	95.63	0.0129	1405	9.0	21.40	597.1
1.581	2	110.30	-2.16	95.65	0.0126	1446	9.0	21.39	596.4
1.591	2	111.30	-2.26	95.65	0.0113	1428	10.0	21.26	594.1
1.601	2	112.30	-2.21	95.66	0.0107	1424	9.0	21.26	592.1
1.611	2	113.30	-2.19	95.72	0.0107	1433	9.0	21.26	590.4
1.621	2	114.30	-2.15	95.79	0.0104	1424	9.0	21.24	590.1
1.631	2	115.30	-2.21	95.76	0.0101	1470	9.0	21.59	591.5
1.641	2	116.30	-2.15	95.83	0.0087	1428	10.0	21.80	587.3
1.651	2	117.30	-2.10	95.75	0.0067	1435	9.0	21.57	586.3
1.661	2	118.30	-2.10	95.72	0.0070	1436	9.0	21.42	585.2
1.671	2	119.30	-2.10	95.69	0.0070	1411	9.0	21.33	589.3
1.681	2	120.30	-2.10	95.64	0.0075	1447	9.0	21.26	587.3
1.691	2	121.30	-2.10	95.63	0.0100	1421	9.0	21.21	589.1
1.701	2	122.30	-2.00	95.65	0.0110	1474	9.0	21.19	591.7
1.711	2	123.30	-2.04	95.74	0.0109	1425	9.0	21.21	593.5
1.721	2	124.30	-2.00	95.89	0.0077	1402	9.0	21.23	595.4
1.731	2	125.30	-1.92	96.06	0.0054	1416	9.0	21.27	594.0
1.741	2	126.30	-1.95	96.01	0.0036	1425	9.0	21.30	588.8
1.751	2	127.30	-1.92	96.03	0.0037	1429	10.0	21.33	585.4
1.761	2	128.30	-1.86	96.05	0.0034	1443	10.0	21.36	580.7
1.771	2	129.30	-1.85	96.27	0.0023	1448	10.0	21.38	574.9
1.781	2	130.30	-1.89	97.78	0.0024	1425	11.0	21.42	551.9
1.791	2	131.30	-1.78	107.61	0.0016	1432	10.0	21.45	544.3
1.801	2	132.30	-1.78	107.29	0.0015	1415	10.0	21.47	534.9
1.811	2	133.30	-1.74	107.65	0.0013	1405	11.0	21.50	527.7
1.821	2	134.30	-1.67	108.56	0.0006	1424	10.0	21.52	518.3
1.831	2	135.30	-1.67	114.46	0.0003	1434	10.0	21.55	504.7
1.841	2	136.30	-1.63	126.06	0.0002	1420	10.0	21.57	489.6
1.851	2	137.30	-1.46	125.02	0.0001	1442	9.0	21.59	469.2
1.861	2	138.30	-1.14	122.58	0.0002	1483	9.0	21.62	443.6
1.871	2	139.30	-0.86	122.16	0.0001	1581	9.0	21.65	414.7
1.881	2	140.30	-0.62	122.80	0.0001	1471	9.0	21.68	380.2
1.891	2	141.30	1.38	999.00	0.0000	1746	8.0	21.70	345.5
1.901	2	142.30	1.62	999.00	0.0000	2591	7.0	21.73	306.4
1.911	2	143.30	1.60	999.00	0.0000	3109	6.0	21.75	268.8
1.921	2	144.30	1.67	999.00	0.0000	3472	5.0	21.77	224.9
1.931	2	145.30	1.38	999.00	0.0000	3768	4.0	21.80	175.1
1.941	2	146.30	1.12	999.00	0.0000	4008	4.0	21.82	124.6
1.951	2	147.30	0.67	999.00	0.0000	4100	3.0	21.84	84.6
1.961	2	148.30	0.92	999.00	0.0000	4189	2.0	21.85	52.7
1.971	2	149.30	0.72	999.00	0.0000	4035	2.0	21.88	41.4
1.981	2	150.30	0.28	999.00	0.0000	4921	2.0	21.89	38.0
