Geotek MSCL 7.9 - TN336_JPC11-11.raw created at 1:10:23 on 1/21/2016.


Core Depth	Section	Sect Depth	CTD 	Tr. Time 	PW Amp   	A Gamma  	Mag Sus  	Temp     	NC Res   
m		cm	mm	µsec		cps	SI x 10^-5	°C	mV

-0.639	cal	0.01	3.32	98.30	0.0004	14591	-1.0	19.55	6.1
-0.579	cal	6.01	0.26	95.77	0.0216	6345	-1.0	19.54	38.9
-0.519	cal	12.01	-2.07	95.59	0.0260	6869	-2.0	19.55	41.9
-0.459	cal	18.01	-1.72	95.79	0.0242	6647	-1.0	19.55	44.6
-0.399	cal	24.01	0.57	96.95	0.0012	6437	-2.0	19.55	50.4
-0.339	cal	30.01	2.85	97.89	0.0070	6454	-1.0	19.55	111.3
-0.279	cal	36.01	1.78	96.54	0.0029	6499	-2.0	19.55	615.4
-0.219	cal	42.01	-1.66	94.62	0.0065	6662	-1.0	19.54	796.4
-0.159	cal	48.01	-1.69	95.05	0.0196	6800	-1.0	19.54	794.4
-0.099	cal	54.01	-0.49	95.32	0.0228	6712	1.0	19.55	780.7
-0.039	cal	60.01	1.01	96.14	0.0213	6615	20.0	19.55	561.6
0.001	1	0.10	4.61	999.00	0.0000	6591	94.0	19.56	201.9
0.011	1	1.10	4.31	96.70	0.0003	3405	114.0	19.55	230.7
0.021	1	2.10	4.58	91.87	0.0006	3497	129.0	19.55	277.5
0.031	1	3.10	4.31	999.00	0.0000	3480	138.0	19.55	317.0
0.041	1	4.10	3.90	999.00	0.0000	3639	144.0	19.54	346.9
0.051	1	5.10	-0.71	999.00	0.0000	3588	149.0	19.55	369.5
0.061	1	6.10	-1.57	999.00	0.0000	3586	151.0	19.56	385.8
0.071	1	7.10	-1.73	999.00	0.0000	3612	154.0	19.55	396.9
0.081	1	8.10	-1.99	85.08	0.0013	3635	157.0	19.56	405.8
0.091	1	9.10	-2.34	85.53	0.0084	3661	159.0	19.55	413.8
0.101	1	10.10	-2.35	85.90	0.0224	3651	161.0	19.54	417.2
0.111	1	11.10	-2.30	86.31	0.0140	3684	163.0	19.55	418.4
0.121	1	12.10	-2.35	86.16	0.0081	3616	164.0	19.55	421.8
0.131	1	13.10	-2.35	86.30	0.0129	3647	166.0	19.54	424.7
0.141	1	14.10	-2.36	86.27	0.0151	3636	167.0	19.54	427.6
0.151	1	15.10	-2.52	86.29	0.0212	3687	168.0	19.54	429.4
0.161	1	16.10	-2.47	86.27	0.0108	3687	169.0	19.55	429.6
0.171	1	17.10	-2.41	86.01	0.0115	3692	170.0	19.55	431.4
0.181	1	18.10	-2.42	86.05	0.0111	3642	170.0	19.55	433.4
0.191	1	19.10	-2.42	85.95	0.0193	3582	170.0	19.54	432.9
0.201	1	20.10	-2.37	86.05	0.0165	3662	171.0	19.54	433.7
0.211	1	21.10	-2.36	86.12	0.0130	3664	171.0	19.55	432.5
0.221	1	22.10	-2.27	86.05	0.0119	3680	170.0	19.55	432.8
0.231	1	23.10	-2.24	86.05	0.0117	3618	169.0	19.54	433.6
0.241	1	24.10	-2.17	86.15	0.0115	3555	168.0	19.54	432.0
0.251	1	25.10	-2.12	86.17	0.0068	3530	167.0	19.55	432.1
0.261	1	26.10	-2.06	86.14	0.0060	3555	166.0	19.55	431.6
0.271	1	27.10	-1.98	86.19	0.0148	3596	166.0	19.55	432.7
0.281	1	28.10	-1.97	86.13	0.0107	3577	168.0	19.55	432.9
0.291	1	29.10	-1.92	86.37	0.0216	3546	168.0	19.54	432.6
0.301	1	30.10	-1.93	86.16	0.0129	3574	169.0	19.55	431.0
0.311	1	31.10	-1.97	86.30	0.0122	3559	171.0	19.55	424.9
0.321	1	32.10	-1.85	86.33	0.0101	3618	173.0	19.55	423.1
0.331	1	33.10	-1.90	86.16	0.0156	3579	175.0	19.55	418.3
0.341	1	34.10	-1.91	86.58	0.0158	3596	178.0	19.54	415.9
0.351	1	35.10	-1.77	86.44	0.0091	3552	180.0	19.55	408.2
0.361	1	36.10	-1.77	86.49	0.0201	3576	182.0	19.55	401.5
0.371	1	37.10	-1.74	86.59	0.0133	3620	184.0	19.55	396.9
0.381	1	38.10	-1.79	86.42	0.0150	3560	187.0	19.55	392.7
0.391	1	39.10	-1.80	86.21	0.0126	3587	188.0	19.55	387.7
0.401	1	40.10	-1.79	86.29	0.0165	3534	190.0	19.55	383.6
0.411	1	41.10	-1.74	86.42	0.0137	3651	191.0	19.55	383.0
0.421	1	42.10	-1.84	86.30	0.0159	3566	193.0	19.54	380.4
0.431	1	43.10	-1.90	86.29	0.0327	3525	194.0	19.55	380.7
0.441	1	44.10	-1.84	86.41	0.0129	3793	197.0	19.55	379.2
0.451	1	45.10	-1.87	86.36	0.0103	3601	198.0	19.55	377.1
0.461	1	46.10	-1.90	86.24	0.0107	3591	199.0	19.55	379.0
0.471	1	47.10	-1.90	86.33	0.0169	3590	201.0	19.55	380.4
0.481	1	48.10	-1.90	86.25	0.0177	3661	201.0	19.55	383.8
0.491	1	49.10	-1.87	86.14	0.0180	3584	202.0	19.55	386.7
0.501	1	50.10	-1.81	86.25	0.0192	3570	201.0	19.55	386.2
0.511	1	51.10	-1.81	86.28	0.0173	3588	202.0	19.55	387.3
0.521	1	52.10	-1.81	86.38	0.0188	3564	203.0	19.55	389.7
0.531	1	53.10	-1.62	86.33	0.0177	3567	204.0	19.55	390.5
0.541	1	54.10	-1.55	86.35	0.0186	3622	203.0	19.55	390.1
0.551	1	55.10	-1.50	86.29	0.0301	3566	204.0	19.55	391.1
0.561	1	56.10	-1.54	86.44	0.0345	3618	205.0	19.56	390.3
0.571	1	57.10	-1.50	86.28	0.0282	3578	206.0	19.56	389.4
0.581	1	58.10	-1.55	86.16	0.0291	3593	207.0	19.54	390.0
0.591	1	59.10	-1.55	86.23	0.0435	3550	207.0	19.55	387.3
0.601	1	60.10	-1.60	86.43	0.0332	3571	208.0	19.55	387.8
0.611	1	61.10	-1.62	86.31	0.0366	3543	208.0	19.55	386.5
0.621	1	62.10	-1.72	86.29	0.0264	3595	208.0	19.55	384.6
0.631	1	63.10	-1.77	86.30	0.0253	3572	208.0	19.55	385.3
0.641	1	64.10	-1.77	86.29	0.0229	3514	208.0	19.56	383.9
0.651	1	65.10	-1.81	86.12	0.0291	3649	208.0	19.55	381.7
0.661	1	66.10	-1.87	86.26	0.0260	3542	207.0	19.56	380.6
0.671	1	67.10	-1.87	86.24	0.0274	3608	207.0	19.55	380.5
0.681	1	68.10	-1.91	86.16	0.0213	3613	207.0	19.55	379.1
0.691	1	69.10	-1.96	86.16	0.0221	3529	208.0	19.56	378.5
0.701	1	70.10	-2.02	86.12	0.0180	3517	210.0	19.55	381.2
0.711	1	71.10	-2.07	85.97	0.0189	3515	212.0	19.55	379.5
0.721	1	72.10	-2.12	86.06	0.0152	3572	214.0	19.55	380.4
0.731	1	73.10	-2.17	85.77	0.0210	3561	217.0	19.56	385.3
0.741	1	74.10	-2.22	85.73	0.0206	3548	220.0	19.56	385.0
0.751	1	75.10	-2.23	85.70	0.0253	3562	222.0	19.55	389.3
0.761	1	76.10	-2.27	85.71	0.0218	3566	223.0	19.56	390.6
0.771	1	77.10	-2.32	85.72	0.0205	3555	225.0	19.55	394.1
0.781	1	78.10	-2.37	85.82	0.0160	3509	226.0	19.55	394.8
0.791	1	79.10	-2.37	85.85	0.0160	3538	227.0	19.55	398.1
0.801	1	80.10	-2.42	85.68	0.0126	3575	229.0	19.57	400.4
0.811	1	81.10	-2.37	85.60	0.0277	3538	230.0	19.57	400.5
0.821	1	82.10	-2.41	85.71	0.0222	3562	229.0	19.57	400.8
0.831	1	83.10	-2.31	85.73	0.0132	3544	231.0	19.56	401.8
0.841	1	84.10	-2.30	85.79	0.0180	3563	231.0	19.57	401.9
0.851	1	85.10	-2.35	85.71	0.0167	3549	232.0	19.57	402.5
0.861	1	86.10	-2.27	85.87	0.0147	3565	232.0	19.57	402.6
0.871	1	87.10	-2.27	86.04	0.0133	3567	233.0	19.57	403.0
0.881	1	88.10	-2.30	85.85	0.0124	3462	233.0	19.57	404.2
0.891	1	89.10	-2.29	85.76	0.0202	3523	233.0	19.57	403.4
0.901	1	90.10	-2.24	86.02	0.0215	3532	234.0	19.57	403.3
0.911	1	91.10	-2.14	86.03	0.0115	3541	234.0	19.57	404.0
0.921	1	92.10	-2.12	86.01	0.0116	3512	234.0	19.57	403.8
0.931	1	93.10	-2.09	86.02	0.0169	3591	234.0	19.58	407.4
0.941	1	94.10	-1.98	86.04	0.0124	3505	234.0	19.58	406.6
0.951	1	95.10	-1.88	86.04	0.0188	3536	235.0	19.58	406.4
0.961	1	96.10	-1.73	86.03	0.0162	3521	236.0	19.58	408.0
0.971	1	97.10	-1.63	86.02	0.0233	3534	238.0	19.58	407.6
0.981	1	98.10	-1.64	86.07	0.0196	3493	241.0	19.58	406.7
0.991	1	99.10	-1.65	86.08	0.0216	3530	244.0	19.57	404.5
1.001	1	100.10	-1.56	86.01	0.0173	3532	247.0	19.58	402.4
1.011	1	101.10	-1.45	85.87	0.0246	3532	250.0	19.58	381.1
1.021	1	102.10	-1.41	85.85	0.0280	3517	253.0	19.58	378.1
1.031	1	103.10	-1.33	85.78	0.0283	3534	256.0	19.58	376.8
1.041	1	104.10	-1.24	85.84	0.0245	3512	258.0	19.59	375.6
1.051	1	105.10	-1.19	85.76	0.0192	3517	259.0	19.57	375.1
1.061	1	106.10	-1.14	85.75	0.0121	3491	262.0	19.58	374.8
1.071	1	107.10	-1.04	85.75	0.0144	3499	263.0	19.59	375.8
1.081	1	108.10	-0.99	85.70	0.0100	3458	263.0	19.59	375.0
1.091	1	109.10	-0.71	85.70	0.0108	3483	263.0	19.59	372.5
1.101	1	110.10	-0.43	85.78	0.0082	3479	262.0	19.59	372.5
1.111	1	111.10	-0.47	86.02	0.0067	3434	262.0	19.59	367.9
1.121	1	112.10	1.07	86.54	0.0022	3431	260.0	19.60	365.4
1.131	1	113.10	1.14	87.06	0.0001	3442	257.0	19.60	359.2
1.141	1	114.10	1.05	999.00	0.0000	3367	252.0	19.60	349.7
1.151	1	115.10	1.00	87.92	0.0003	3339	242.0	19.60	335.6
1.161	1	116.10	0.91	87.78	0.0002	3372	228.0	19.60	312.2
1.171	1	117.10	0.81	86.82	0.0004	3371	209.0	19.61	278.6
1.181	1	118.10	1.35	96.28	0.0001	3402	190.0	19.60	223.5
1.191	1	119.10	2.28	999.00	0.0000	6023	173.0	19.60	165.0
1.201	1	120.10	3.85	999.00	0.0000	14123	165.0	19.60	125.7
1.211	2	0.25	4.41	999.00	0.0000	11709	169.0	19.60	124.6
1.221	2	1.25	4.26	999.00	0.0000	6839	180.0	19.61	166.1
1.231	2	2.25	4.31	999.00	0.0000	6618	194.0	19.61	232.1
1.241	2	3.25	3.96	109.36	0.0002	6303	208.0	19.62	293.7
1.251	2	4.25	3.53	114.70	0.0001	6018	219.0	19.61	340.2
1.261	2	5.25	-0.34	999.00	0.0000	5423	229.0	19.61	371.2
1.271	2	6.25	-1.49	86.62	0.0002	4391	237.0	19.62	391.8
1.281	2	7.25	-1.89	84.92	0.0016	3501	243.0	19.61	402.1
1.291	2	8.25	-2.07	84.60	0.0084	3498	249.0	19.61	407.2
1.301	2	9.25	-2.20	85.29	0.0090	3516	252.0	19.62	412.2
1.311	2	10.25	-2.31	85.05	0.0107	3526	254.0	19.61	412.1
1.321	2	11.25	-2.29	85.23	0.0177	3502	255.0	19.61	411.0
1.331	2	12.25	-2.32	85.14	0.0167	3526	256.0	19.61	415.0
1.341	2	13.25	-2.36	85.09	0.0188	3514	257.0	19.62	415.7
1.351	2	14.25	-2.36	85.24	0.0142	3513	258.0	19.62	414.7
1.361	2	15.25	-2.41	85.27	0.0093	3511	260.0	19.62	412.8
1.371	2	16.25	-2.35	85.03	0.0084	3499	262.0	19.62	416.2
1.381	2	17.25	-2.21	85.21	0.0086	3539	264.0	19.62	415.6
1.391	2	18.25	-2.26	85.23	0.0093	3513	268.0	19.62	416.6
1.401	2	19.25	-2.15	85.25	0.0081	3528	270.0	19.62	420.4
1.411	2	20.25	-2.11	85.25	0.0091	3509	273.0	19.62	425.3
1.421	2	21.25	-2.06	85.27	0.0079	3444	273.0	19.63	431.3
1.431	2	22.25	-2.00	85.26	0.0077	3566	271.0	19.63	439.9
1.441	2	23.25	-1.97	85.37	0.0075	3520	266.0	19.63	451.3
1.451	2	24.25	-2.01	85.64	0.0078	3495	256.0	19.62	463.5
1.461	2	25.25	-1.96	85.72	0.0079	3493	239.0	19.63	475.6
1.471	2	26.25	-1.96	86.19	0.0066	3985	217.0	19.62	483.2
1.481	2	27.25	-1.90	88.34	0.0023	4857	190.0	19.63	488.3
1.491	2	28.25	-1.90	92.99	0.0147	5044	161.0	19.64	497.1
1.501	2	29.25	-1.91	94.20	0.0102	5052	135.0	19.63	505.2
1.511	2	30.25	-1.91	94.45	0.0104	4826	117.0	19.64	518.7
1.521	2	31.25	-1.86	94.66	0.0106	4597	104.0	19.64	524.0
1.531	2	32.25	-1.84	94.45	0.0113	4459	96.0	19.63	528.6
1.541	2	33.25	-1.80	93.77	0.0085	4167	89.0	19.64	528.3
1.551	2	34.25	-1.78	94.06	0.0103	4413	81.0	19.63	529.9
1.561	2	35.25	-1.74	94.83	0.0167	4729	75.0	19.64	531.5
1.571	2	36.25	-1.75	95.14	0.0154	4816	69.0	19.64	530.4
1.581	2	37.25	-1.79	95.14	0.0129	4835	66.0	19.64	525.1
1.591	2	38.25	-1.84	94.91	0.0215	4822	64.0	19.64	513.9
1.601	2	39.25	-1.90	94.99	0.0180	4823	62.0	19.64	507.1
1.611	2	40.25	-1.90	94.96	0.0217	4787	63.0	19.64	498.8
1.621	2	41.25	-1.93	94.88	0.0211	4744	63.0	19.64	493.1
1.631	2	42.25	-2.00	94.83	0.0182	4634	65.0	19.65	486.4
1.641	2	43.25	-2.03	94.50	0.0168	4552	68.0	19.65	482.2
1.651	2	44.25	-2.05	94.52	0.0210	4515	72.0	19.65	473.4
1.661	2	45.25	-2.05	94.47	0.0192	4440	77.0	19.65	465.0
1.671	2	46.25	-2.04	94.47	0.0300	4499	84.0	19.64	451.2
1.681	2	47.25	-2.04	94.51	0.0270	4612	95.0	19.65	438.1
1.691	2	48.25	-2.05	94.64	0.0276	4601	113.0	19.65	431.6
1.701	2	49.25	-1.95	94.68	0.0287	4559	134.0	19.65	428.9
1.711	2	50.25	-1.90	94.14	0.0156	4257	159.0	19.65	425.8
1.721	2	51.25	-1.91	87.36	0.0027	3688	184.0	19.66	423.8
1.731	2	52.25	-1.89	84.96	0.0113	3528	204.0	19.66	417.5
1.741	2	53.25	-1.84	85.11	0.0318	3532	220.0	19.66	412.6
1.751	2	54.25	-1.81	85.45	0.0144	3521	233.0	19.66	406.7
1.761	2	55.25	-1.74	85.28	0.0216	3464	243.0	19.66	405.8
1.771	2	56.25	-1.66	85.39	0.0169	3467	252.0	19.66	402.7
1.781	2	57.25	-1.57	85.37	0.0193	3497	257.0	19.67	404.4
1.791	2	58.25	-1.57	85.41	0.0238	3524	260.0	19.66	403.1
1.801	2	59.25	-1.62	85.56	0.0215	3494	259.0	19.66	401.5
1.811	2	60.25	-1.67	85.45	0.0168	3516	257.0	19.66	400.9
1.821	2	61.25	-1.77	85.37	0.0261	3534	251.0	19.66	401.6
1.831	2	62.25	-1.74	85.64	0.0235	3544	244.0	19.66	402.4
1.841	2	63.25	-1.90	85.67	0.0254	3579	235.0	19.66	406.5
1.851	2	64.25	-1.86	86.00	0.0264	3555	221.0	19.68	409.1
1.861	2	65.25	-1.91	85.89	0.0187	3592	203.0	19.66	410.4
1.871	2	66.25	-2.01	86.59	0.0120	3714	180.0	19.66	413.2
1.881	2	67.25	-2.01	88.38	0.0171	3867	150.0	19.66	417.2
1.891	2	68.25	-1.96	91.01	0.0113	4188	121.0	19.67	424.1
1.901	2	69.25	-2.04	93.69	0.0240	4662	95.0	19.67	433.3
1.911	2	70.25	-2.05	95.01	0.0455	4716	76.0	19.67	445.5
1.921	2	71.25	-2.10	94.85	0.0274	4646	63.0	19.67	460.0
1.931	2	72.25	-2.10	94.60	0.0316	4550	56.0	19.67	470.7
1.941	2	73.25	-2.15	94.50	0.0236	4396	49.0	19.67	479.9
1.951	2	74.25	-2.16	94.15	0.0131	4591	44.0	19.67	480.4
1.961	2	75.25	-2.17	94.29	0.0445	4690	40.0	19.67	483.8
1.971	2	76.25	-2.24	94.47	0.0369	4705	36.0	19.68	493.2
1.981	2	77.25	-2.27	94.56	0.0424	4709	34.0	19.67	499.8
1.991	2	78.25	-2.25	94.62	0.0434	4756	32.0	19.68	506.3
2.001	2	79.25	-2.38	94.67	0.0426	4800	31.0	19.68	511.4
2.011	2	80.25	-2.39	94.82	0.0330	4781	30.0	19.68	512.0
2.021	2	81.25	-2.36	94.80	0.0266	4815	30.0	19.68	514.3
2.031	2	82.25	-2.41	94.87	0.0234	4737	29.0	19.68	514.6
2.041	2	83.25	-2.40	94.64	0.0252	4739	28.0	19.67	512.0
2.051	2	84.25	-2.35	94.61	0.0277	4736	28.0	19.68	512.9
2.061	2	85.25	-2.35	94.53	0.0228	4700	29.0	19.68	516.2
2.071	2	86.25	-2.35	94.48	0.0215	4722	29.0	19.68	520.1
2.081	2	87.25	-2.35	94.60	0.0264	4707	29.0	19.69	524.1
2.091	2	88.25	-2.40	94.60	0.0226	4761	29.0	19.69	526.5
2.101	2	89.25	-2.37	94.47	0.0279	4702	29.0	19.69	525.4
2.111	2	90.25	-2.35	94.58	0.0263	4818	29.0	19.69	523.1
2.121	2	91.25	-2.35	94.70	0.0274	4825	29.0	19.69	519.3
2.131	2	92.25	-2.35	94.45	0.0249	4798	29.0	19.70	516.5
2.141	2	93.25	-2.35	94.55	0.0302	5043	29.0	19.70	513.8
2.151	2	94.25	-2.29	94.82	0.0292	4965	30.0	19.71	513.1
2.161	2	95.25	-2.35	94.26	0.0215	4538	30.0	19.71	510.3
2.171	2	96.25	-2.34	93.63	0.0093	4581	31.0	19.70	507.4
2.181	2	97.25	-2.30	93.87	0.0292	4810	31.0	19.71	505.8
2.191	2	98.25	-2.33	94.24	0.0106	4968	32.0	19.71	506.8
2.201	2	99.25	-2.26	94.16	0.0218	4750	33.0	19.70	507.1
2.211	2	100.25	-2.24	94.45	0.0511	4915	34.0	19.71	508.5
2.221	2	101.25	-2.19	94.62	0.0497	4947	34.0	19.71	506.9
2.231	2	102.25	-2.03	94.61	0.0620	4939	36.0	20.07	507.4
2.241	2	103.25	-2.04	94.86	0.0535	4948	38.0	20.51	504.1
2.251	2	104.25	-1.94	94.49	0.0406	4652	40.0	19.72	503.4
2.261	2	105.25	-1.89	94.55	0.0372	4816	42.0	18.98	505.8
2.271	2	106.25	-1.84	94.65	0.0380	4686	46.0	18.74	507.7
2.281	2	107.25	-1.84	94.14	0.0303	4396	48.0	18.64	506.6
2.291	2	108.25	-1.82	94.18	0.0358	4750	51.0	18.59	504.8
2.301	2	109.25	-1.82	94.88	0.0480	4926	54.0	18.55	499.0
2.311	2	110.25	-1.74	95.14	0.0232	4808	58.0	18.52	490.9
2.321	2	111.25	-1.74	95.26	0.0128	4870	64.0	18.53	482.1
2.331	2	112.25	-1.75	95.23	0.0059	4777	73.0	18.55	476.4
2.341	2	113.25	-1.64	95.22	0.0153	4776	86.0	18.56	469.4
2.351	2	114.25	-1.60	94.85	0.0126	4398	102.0	18.57	453.5
2.361	2	115.25	-1.61	94.07	0.0086	4304	120.0	18.57	454.6
2.371	2	116.25	-1.50	93.88	0.0076	4203	137.0	18.56	454.0
2.381	2	117.25	-1.45	90.81	0.0017	3892	149.0	18.59	447.8
2.391	2	118.25	-1.38	89.33	0.0008	4056	156.0	18.61	441.2
2.401	2	119.25	-1.23	98.88	0.0004	4758	157.0	18.67	433.3
2.411	2	120.25	-0.97	95.39	0.0014	4817	162.0	18.72	426.3
2.421	2	121.25	-0.71	95.70	0.0019	4714	175.0	18.75	421.7
2.431	2	122.25	-0.10	95.94	0.0016	4740	194.0	18.76	415.0
2.441	2	123.25	0.17	90.46	0.0003	3786	212.0	18.74	406.2
2.451	2	124.25	1.14	88.48	0.0002	3537	226.0	18.76	394.6
2.461	2	125.25	4.02	999.00	0.0000	3752	231.0	18.79	381.0
2.471	2	126.25	3.89	999.00	0.0000	3993	230.0	18.83	367.9
2.481	2	127.25	3.20	999.00	0.0000	3793	227.0	18.86	353.5
2.491	2	128.25	2.34	92.15	0.0003	3833	227.0	18.89	337.5
2.501	2	129.25	1.55	91.25	0.0004	3706	226.0	18.92	309.9
2.511	2	130.25	1.41	93.71	0.0014	4296	223.0	18.93	261.3
2.521	2	131.25	0.79	94.00	0.0020	4176	218.0	18.95	197.1
2.531	2	132.25	-0.01	93.77	0.0005	3632	202.0	18.99	138.0
2.541	2	133.25	-0.35	999.00	0.0000	3600	166.0	19.04	104.3
