Geotek MSCL 7.9 - TN336_JPC19-21.raw created at 18:14:49 on 1/22/2016.


Core Depth	Section	Sect Depth	CTD 	Tr. Time 	PW Amp   	A Gamma  	Mag Sus  	Temp     	NC Res   
m		cm	mm	µsec		cps	SI x 10^-5	°C	mV

-0.639	before cal	-0.03	4.67	112.36	0.0001	14362	-1.0	24.26	4.5
-0.579	cal	5.97	2.62	96.05	0.0077	6480	-2.0	24.26	23.3
-0.519	cal	11.97	0.30	95.56	0.0309	6820	-1.0	24.30	25.6
-0.459	cal	17.97	0.31	95.78	0.0207	6715	-2.0	24.29	27.8
-0.399	cal	23.97	2.81	96.75	0.0016	6542	-2.0	20.73	34.0
-0.339	cal	29.97	4.95	97.70	0.0072	6631	-2.0	20.72	95.4
-0.279	cal	35.97	3.94	96.48	0.0100	6561	-1.0	20.72	599.6
-0.219	cal	41.97	0.52	94.49	0.0075	6694	-2.0	20.72	785.4
-0.159	cal	47.97	0.05	94.83	0.0191	6556	-2.0	20.71	778.6
-0.099	cal	53.97	1.51	95.35	0.0075	6602	-2.0	20.71	770.4
-0.039	cal	59.97	1.88	95.31	0.0138	6549	1.0	20.71	567.1
0.001	1	0.10	6.91	999.00	0.0000	8095	9.0	20.72	275.8
0.011	1	1.10	7.41	999.00	0.0000	5136	11.0	20.72	323.9
0.021	1	2.10	7.59	999.00	0.0000	5118	12.0	20.72	411.1
0.031	1	3.10	7.60	97.42	0.0011	5044	13.0	20.72	502.0
0.041	1	4.10	6.97	999.00	0.0000	5070	14.0	20.72	574.9
0.051	1	5.10	2.11	94.73	0.0035	5116	15.0	20.72	625.4
0.061	1	6.10	1.22	94.72	0.0042	5069	15.0	20.72	654.8
0.071	1	7.10	0.54	94.27	0.0029	5173	15.0	20.72	666.9
0.081	1	8.10	0.25	93.74	0.0015	5263	16.0	20.72	664.1
0.091	1	9.10	0.16	93.59	0.0019	5190	15.0	20.72	653.8
0.101	1	10.10	0.15	94.04	0.0044	5151	16.0	20.72	643.8
0.111	1	11.10	0.10	94.49	0.0115	5046	16.0	20.72	634.1
0.121	1	12.10	0.10	94.94	0.0112	5008	16.0	20.72	623.6
0.131	1	13.10	0.04	94.93	0.0104	4909	15.0	20.72	611.5
0.141	1	14.10	0.04	94.89	0.0051	5009	16.0	20.72	599.7
0.151	1	15.10	0.04	94.53	0.0022	5105	16.0	20.72	590.3
0.161	1	16.10	-0.02	93.98	0.0010	5101	16.0	20.73	582.3
0.171	1	17.10	-0.01	99.26	0.0007	5138	15.0	20.73	576.6
0.181	1	18.10	-0.02	107.09	0.0005	5133	16.0	20.72	571.0
0.191	1	19.10	-0.02	106.78	0.0012	5157	15.0	20.73	567.5
0.201	1	20.10	0.02	107.14	0.0009	5196	16.0	20.72	568.2
0.211	1	21.10	0.07	110.98	0.0007	5176	16.0	20.73	570.8
0.221	1	22.10	0.03	111.29	0.0004	5192	16.0	20.73	573.7
0.231	1	23.10	0.08	110.89	0.0004	5054	16.0	20.73	576.1
0.241	1	24.10	0.14	106.98	0.0011	5031	16.0	20.73	576.5
0.251	1	25.10	0.13	110.83	0.0016	5083	16.0	20.73	580.0
0.261	1	26.10	0.16	106.89	0.0008	5117	16.0	20.73	583.5
0.271	1	27.10	0.18	106.84	0.0006	5036	16.0	20.73	583.9
0.281	1	28.10	0.23	115.40	0.0011	4975	16.0	20.73	583.0
0.291	1	29.10	0.18	111.35	0.0009	5074	16.0	20.73	585.6
0.301	1	30.10	0.28	116.90	0.0005	4992	17.0	20.73	582.8
0.311	1	31.10	0.34	120.22	0.0002	5033	18.0	20.74	560.7
0.321	1	32.10	0.33	119.61	0.0002	4917	18.0	20.73	554.6
0.331	1	33.10	0.28	119.57	0.0005	4925	18.0	20.73	548.8
0.341	1	34.10	0.41	119.97	0.0002	4999	18.0	20.74	543.4
0.351	1	35.10	0.39	119.52	0.0002	4973	18.0	20.73	536.1
0.361	1	36.10	0.39	116.11	0.0002	5026	18.0	20.74	530.5
0.371	1	37.10	0.48	107.15	0.0007	4960	17.0	20.74	526.7
0.381	1	38.10	0.38	107.10	0.0011	4997	17.0	20.73	527.0
0.391	1	39.10	0.38	107.67	0.0005	5019	17.0	20.75	531.0
0.401	1	40.10	0.44	111.49	0.0003	5021	16.0	20.75	536.1
0.411	1	41.10	0.29	107.46	0.0004	5118	16.0	20.74	542.0
0.421	1	42.10	0.25	111.64	0.0004	5186	16.0	20.74	547.3
0.431	1	43.10	0.40	107.55	0.0004	5091	16.0	20.74	551.5
0.441	1	44.10	0.35	111.35	0.0004	5068	16.0	20.75	552.4
0.451	1	45.10	0.29	116.53	0.0002	5048	16.0	20.75	552.2
0.461	1	46.10	0.35	120.00	0.0002	5054	16.0	20.74	549.0
0.471	1	47.10	0.29	119.85	0.0001	5008	16.0	20.74	544.5
0.481	1	48.10	0.24	120.33	0.0001	5020	16.0	20.75	539.8
0.491	1	49.10	0.68	128.59	0.0001	5069	15.0	20.75	536.8
0.501	1	50.10	0.72	119.49	0.0001	5107	15.0	20.75	536.6
0.511	1	51.10	0.73	119.60	0.0002	5109	16.0	20.75	537.6
0.521	1	52.10	0.78	120.05	0.0002	5129	16.0	20.74	539.7
0.531	1	53.10	0.83	999.00	0.0000	5105	16.0	20.74	542.3
0.541	1	54.10	0.88	120.20	0.0001	5130	15.0	20.75	542.0
0.551	1	55.10	0.83	120.11	0.0002	5111	15.0	20.75	539.3
0.561	1	56.10	0.85	119.85	0.0002	5039	15.0	20.75	534.8
0.571	1	57.10	0.91	119.99	0.0001	5012	15.0	20.75	525.9
0.581	1	58.10	0.90	119.86	0.0002	5017	15.0	20.76	520.1
0.591	1	59.10	0.96	119.89	0.0001	5032	15.0	20.76	518.9
0.601	1	60.10	1.01	120.04	0.0002	5167	14.0	20.75	508.5
0.611	1	61.10	1.10	120.57	0.0002	5163	15.0	20.76	496.4
0.621	1	62.10	1.16	120.55	0.0002	5096	14.0	20.75	496.3
0.631	1	63.10	1.22	120.31	0.0002	5129	14.0	20.75	497.2
0.641	1	64.10	1.31	128.60	0.0001	5174	14.0	20.76	499.8
0.651	1	65.10	1.38	128.74	0.0001	5195	13.0	20.76	501.4
0.661	1	66.10	1.41	138.34	0.0000	5206	12.0	20.76	497.6
0.671	1	67.10	1.97	137.96	0.0000	5212	12.0	20.75	489.6
0.681	1	68.10	2.28	999.00	0.0000	5225	11.0	20.76	470.3
0.691	1	69.10	2.48	143.81	0.0001	5213	10.0	20.76	435.2
0.701	1	70.10	2.44	999.00	0.0000	5320	9.0	20.76	381.1
0.711	1	71.10	3.10	999.00	0.0000	5448	8.0	20.76	306.8
0.721	1	72.10	4.15	999.00	0.0000	5528	6.0	20.77	227.8
0.731	1	73.10	4.50	999.00	0.0000	6261	4.0	20.76	165.6
0.741	1	74.10	4.04	999.00	0.0000	13250	4.0	20.76	130.1
0.751	1	75.10	4.02	999.00	0.0000	14029	2.0	20.76	117.0
0.761	1	76.10	3.64	999.00	0.0000	14119	2.0	20.76	112.1
0.771	1	77.10	3.49	999.00	0.0000	14154	2.0	20.75	112.4
0.781	1	78.10	2.84	999.00	0.0000	14122	3.0	20.76	109.6
0.791	1	79.10	5.63	999.00	0.0000	14282	4.0	20.76	105.8
0.801	1	80.10	5.95	999.00	0.0000	14082	5.0	20.76	114.3
0.811	2	0.58	6.34	999.00	0.0000	6314	7.0	20.76	158.3
0.821	2	1.58	6.72	999.00	0.0000	4904	8.0	20.76	241.5
0.831	2	2.58	6.63	97.30	0.0013	4850	9.0	20.75	341.6
0.841	2	3.58	6.38	98.19	0.0056	4783	11.0	20.74	426.6
0.851	2	4.58	5.13	98.19	0.0001	4794	11.0	20.75	484.6
0.861	2	5.58	1.79	96.01	0.0069	4849	12.0	20.75	523.6
0.871	2	6.58	1.36	96.18	0.0035	4928	11.0	20.74	544.2
0.881	2	7.58	0.96	95.65	0.0005	4929	12.0	20.75	556.4
0.891	2	8.58	0.75	95.78	0.0006	4965	12.0	20.75	559.9
0.901	2	9.58	0.44	95.76	0.0004	4827	12.0	20.75	557.1
0.911	2	10.58	0.31	95.13	0.0004	4866	12.0	20.75	553.7
0.921	2	11.58	0.23	100.52	0.0004	4821	13.0	20.76	553.8
0.931	2	12.58	0.23	106.16	0.0004	4819	13.0	20.75	553.4
0.941	2	13.58	0.27	105.93	0.0010	4788	13.0	20.76	555.0
0.951	2	14.58	0.22	100.30	0.0009	4866	13.0	20.75	555.4
0.961	2	15.58	0.22	101.50	0.0006	4828	12.0	20.76	554.3
0.971	2	16.58	0.22	101.31	0.0007	4880	13.0	20.75	552.1
0.981	2	17.58	0.22	95.83	0.0007	4866	12.0	20.75	553.8
0.991	2	18.58	0.22	100.87	0.0005	4882	12.0	20.76	557.8
1.001	2	19.58	0.22	94.30	0.0003	5065	12.0	20.75	565.8
1.011	2	20.58	0.17	100.41	0.0007	5062	12.0	20.75	570.1
1.021	2	21.58	0.17	106.10	0.0008	5019	12.0	20.76	572.1
1.031	2	22.58	0.22	106.28	0.0008	4905	13.0	20.75	569.1
1.041	2	23.58	0.21	106.14	0.0005	4783	12.0	20.76	564.9
1.051	2	24.58	0.27	106.86	0.0004	4743	12.0	20.75	561.5
1.061	2	25.58	0.25	106.67	0.0005	4667	12.0	20.75	559.1
1.071	2	26.58	0.31	100.76	0.0006	4587	12.0	20.76	557.8
1.081	2	27.58	0.35	96.14	0.0009	4574	13.0	20.76	555.6
1.091	2	28.58	0.30	101.73	0.0009	4645	12.0	20.76	556.3
1.101	2	29.58	0.30	101.27	0.0005	4697	12.0	20.75	557.7
1.111	2	30.58	0.40	100.74	0.0008	4606	12.0	20.76	555.1
1.121	2	31.58	0.35	95.10	0.0008	4633	12.0	20.75	548.3
1.131	2	32.58	0.36	94.78	0.0014	4599	12.0	20.76	545.0
1.141	2	33.58	0.36	94.74	0.0015	4574	12.0	20.75	543.6
1.151	2	34.58	0.36	94.82	0.0026	4607	11.0	20.76	540.5
1.161	2	35.58	0.36	94.91	0.0016	4699	11.0	20.76	535.7
1.171	2	36.58	0.37	95.46	0.0012	4789	11.0	20.75	525.4
1.181	2	37.58	0.36	95.37	0.0015	4749	11.0	20.76	514.3
1.191	2	38.58	0.42	95.39	0.0026	4731	10.0	20.75	507.7
1.201	2	39.58	0.42	95.45	0.0052	4743	10.0	20.75	503.0
1.211	2	40.58	0.36	95.43	0.0052	4714	10.0	20.75	499.0
1.221	2	41.58	0.39	95.55	0.0039	4742	10.0	20.76	497.3
1.231	2	42.58	0.36	96.08	0.0022	4693	10.0	20.75	498.5
1.241	2	43.58	0.35	100.25	0.0014	4663	10.0	20.76	498.6
1.251	2	44.58	0.36	95.58	0.0012	4594	10.0	20.75	498.4
1.261	2	45.58	0.33	100.37	0.0010	4555	10.0	20.76	496.3
1.271	2	46.58	0.32	94.81	0.0011	4568	11.0	20.76	495.2
1.281	2	47.58	0.32	102.73	0.0008	4549	10.0	20.76	493.0
1.291	2	48.58	0.41	111.62	0.0005	4611	10.0	20.76	491.3
1.301	2	49.58	0.42	111.50	0.0007	4732	10.0	20.76	484.6
1.311	2	50.58	0.41	107.11	0.0006	4642	10.0	20.76	481.5
1.321	2	51.58	0.41	106.32	0.0005	4536	9.0	20.75	481.7
1.331	2	52.58	0.51	100.27	0.0010	4549	9.0	20.76	485.1
1.341	2	53.58	0.55	94.29	0.0010	4622	9.0	20.76	488.0
1.351	2	54.58	0.58	106.55	0.0012	4869	9.0	20.76	493.8
1.361	2	55.58	0.65	107.14	0.0021	4948	8.0	20.76	501.5
1.371	2	56.58	0.83	106.75	0.0014	4963	8.0	20.76	511.6
1.381	2	57.58	0.91	106.58	0.0011	4978	8.0	20.76	518.2
1.391	2	58.58	0.94	101.76	0.0009	4908	8.0	20.76	524.1
1.401	2	59.58	0.95	100.72	0.0011	4888	8.0	20.76	527.4
1.411	2	60.58	0.98	105.45	0.0013	4940	8.0	20.76	529.1
1.421	2	61.58	0.96	101.15	0.0012	4889	8.0	20.76	531.0
1.431	2	62.58	0.95	101.80	0.0012	5009	8.0	20.76	528.6
1.441	2	63.58	0.91	102.18	0.0012	4925	8.0	20.76	530.6
1.451	2	64.58	0.90	95.71	0.0014	4976	8.0	20.76	528.6
1.461	2	65.58	0.82	96.63	0.0014	4883	9.0	20.75	528.1
1.471	2	66.58	0.82	96.52	0.0016	4932	9.0	20.76	529.1
1.481	2	67.58	0.72	101.59	0.0022	4914	8.0	20.76	529.1
1.491	2	68.58	0.65	96.93	0.0021	4879	9.0	20.76	529.6
1.501	2	69.58	0.57	96.19	0.0020	4917	9.0	20.76	530.2
1.511	2	70.58	0.52	95.70	0.0015	4933	9.0	20.76	527.2
1.521	2	71.58	0.47	95.94	0.0020	4919	9.0	20.76	527.8
1.531	2	72.58	0.32	95.86	0.0030	4935	9.0	20.75	530.5
1.541	2	73.58	0.32	96.10	0.0037	4895	9.0	20.74	533.0
1.551	2	74.58	0.23	95.61	0.0024	4893	10.0	20.75	536.3
1.561	2	75.58	0.12	95.64	0.0037	4905	9.0	20.75	536.9
1.571	2	76.58	0.09	95.76	0.0036	4862	10.0	20.76	534.1
1.581	2	77.58	0.06	95.49	0.0038	4847	10.0	20.75	534.1
1.591	2	78.58	-0.03	95.43	0.0077	4885	10.0	20.75	536.0
1.601	2	79.58	-0.07	95.54	0.0104	4825	10.0	20.75	537.0
1.611	2	80.58	-0.07	95.62	0.0135	4831	11.0	20.76	535.9
1.621	2	81.58	-0.13	95.66	0.0076	4752	10.0	20.75	535.0
1.631	2	82.58	0.02	95.66	0.0065	4825	11.0	20.76	530.8
1.641	2	83.58	0.05	95.66	0.0069	4808	11.0	20.75	530.5
1.651	2	84.58	0.04	95.63	0.0083	4766	10.0	20.75	529.6
1.661	2	85.58	0.05	95.64	0.0139	4792	11.0	20.75	528.7
1.671	2	86.58	0.15	95.73	0.0099	4748	11.0	20.75	526.1
1.681	2	87.58	0.16	95.64	0.0081	4798	11.0	20.75	526.8
1.691	2	88.58	0.22	95.66	0.0121	4759	11.0	20.75	528.2
1.701	2	89.58	0.21	95.75	0.0116	4840	11.0	20.75	528.3
1.711	2	90.58	0.21	95.83	0.0087	4840	12.0	20.75	527.2
1.721	2	91.58	0.26	95.74	0.0098	4816	12.0	20.75	532.6
1.731	2	92.58	0.26	95.74	0.0097	4791	11.0	20.74	530.2
1.741	2	93.58	0.26	95.65	0.0075	4760	12.0	20.76	530.0
1.751	2	94.58	0.26	95.78	0.0072	4768	12.0	20.75	527.8
1.761	2	95.58	0.27	95.68	0.0063	4776	12.0	20.75	526.2
1.771	2	96.58	0.27	95.49	0.0079	4795	12.0	20.75	524.1
1.781	2	97.58	0.27	95.45	0.0081	4756	12.0	20.75	522.2
1.791	2	98.58	0.21	95.65	0.0095	4770	12.0	20.75	522.3
1.801	2	99.58	0.16	95.41	0.0084	4793	13.0	20.74	519.6
1.811	2	100.58	0.15	95.56	0.0075	4804	12.0	20.74	520.0
1.821	2	101.58	0.18	95.35	0.0080	4786	13.0	20.75	521.7
1.831	2	102.58	0.10	95.39	0.0099	4703	13.0	20.75	521.4
1.841	2	103.58	0.05	95.38	0.0102	4762	13.0	20.74	521.4
1.851	2	104.58	0.04	95.33	0.0135	4766	13.0	20.75	519.6
1.861	2	105.58	0.08	95.38	0.0105	4773	13.0	20.75	515.7
1.871	2	106.58	0.04	95.43	0.0084	4779	13.0	20.75	510.7
1.881	2	107.58	0.06	95.42	0.0095	4728	13.0	20.75	505.1
1.891	2	108.58	0.04	95.38	0.0117	4725	14.0	20.75	503.7
1.901	2	109.58	0.10	95.45	0.0090	4748	14.0	20.75	503.5
1.911	2	110.58	0.10	95.64	0.0073	4755	13.0	20.75	506.8
1.921	2	111.58	0.09	95.69	0.0050	4736	14.0	20.75	510.4
1.931	2	112.58	0.10	95.64	0.0049	4759	14.0	20.74	511.4
1.941	2	113.58	0.10	95.62	0.0047	4672	14.0	20.74	509.8
1.951	2	114.58	0.05	95.62	0.0045	4716	15.0	20.75	506.0
1.961	2	115.58	0.10	95.62	0.0051	4683	14.0	20.74	501.3
1.971	2	116.58	0.10	95.42	0.0065	4770	15.0	20.74	497.5
1.981	2	117.58	0.16	95.64	0.0064	4738	15.0	20.74	495.8
1.991	2	118.58	0.10	95.66	0.0061	4701	15.0	20.74	497.4
2.001	2	119.58	0.10	95.66	0.0051	4717	15.0	20.74	499.0
2.011	2	120.58	0.16	95.68	0.0044	4778	14.0	20.74	501.6
2.021	2	121.58	0.10	95.69	0.0040	4737	14.0	20.74	504.0
2.031	2	122.58	0.10	95.77	0.0035	4727	14.0	20.73	507.9
2.041	2	123.58	0.10	95.72	0.0033	4691	15.0	20.73	509.4
2.051	2	124.58	0.10	95.69	0.0033	4670	15.0	20.74	509.4
2.061	2	125.58	0.14	95.73	0.0031	4722	15.0	20.74	508.9
2.071	2	126.58	0.20	95.81	0.0023	4717	14.0	20.73	502.7
2.081	2	127.58	0.24	95.82	0.0022	4759	15.0	20.74	493.0
2.091	2	128.58	0.27	95.80	0.0024	4715	15.0	20.74	490.4
2.101	2	129.58	0.38	95.92	0.0021	4751	15.0	20.73	470.1
2.111	2	130.58	0.49	95.99	0.0019	4681	15.0	20.74	465.4
2.121	2	131.58	0.48	95.92	0.0018	4760	15.0	20.75	464.2
2.131	2	132.58	0.55	95.89	0.0020	4699	15.0	20.74	460.1
2.141	2	133.58	0.63	96.02	0.0021	4788	15.0	20.74	456.2
2.151	2	134.58	0.67	96.02	0.0026	4791	15.0	20.74	454.8
2.161	2	135.58	0.78	96.07	0.0030	4741	15.0	20.74	453.0
2.171	2	136.58	1.78	96.45	0.0026	4761	15.0	20.74	454.4
2.181	2	137.58	1.51	96.26	0.0032	4767	15.0	20.73	457.2
2.191	2	138.58	1.69	96.43	0.0023	4702	16.0	20.73	456.8
2.201	2	139.58	2.04	95.67	0.0049	4675	16.0	20.74	458.7
2.211	2	140.58	4.49	97.01	0.0013	4662	15.0	20.74	460.6
2.221	2	141.58	5.02	97.41	0.0015	4669	16.0	20.74	462.5
2.231	2	142.58	5.35	96.97	0.0002	4578	16.0	20.74	464.7
2.241	2	143.58	5.09	97.62	0.0004	4546	16.0	20.74	463.3
2.251	2	144.58	4.58	97.19	0.0015	4590	16.0	20.74	453.1
2.261	2	145.58	3.73	96.72	0.0011	4588	15.0	20.75	417.2
2.271	2	146.58	3.43	96.09	0.0013	4682	14.0	20.73	340.7
2.281	2	147.58	3.73	97.01	0.0095	4728	16.0	20.73	247.1
2.291	2	148.58	5.45	98.08	0.0011	4871	16.0	20.74	189.1
2.301	3	0.07	6.69	999.00	0.0000	6388	16.0	20.74	189.8
2.311	3	1.07	7.18	999.00	0.0000	4570	16.0	20.75	239.3
2.321	3	2.07	7.32	103.68	0.0001	4580	16.0	20.74	305.9
2.331	3	3.07	7.12	107.37	0.0001	4568	16.0	20.75	367.3
2.341	3	4.07	6.77	98.70	0.0006	4653	17.0	20.74	411.4
2.351	3	5.07	4.09	96.35	0.0003	4670	17.0	20.74	439.4
2.361	3	6.07	2.52	96.60	0.0010	4615	16.0	20.74	456.4
2.371	3	7.07	1.45	95.35	0.0054	4671	16.0	20.73	467.3
2.381	3	8.07	0.57	95.23	0.0065	4614	16.0	20.73	474.1
2.391	3	9.07	0.52	95.34	0.0054	4664	17.0	20.74	479.9
2.401	3	10.07	0.52	95.28	0.0116	4743	16.0	20.74	484.3
2.411	3	11.07	0.52	95.52	0.0136	4701	16.0	20.73	487.7
2.421	3	12.07	0.52	95.41	0.0136	4701	16.0	20.73	491.0
2.431	3	13.07	0.57	95.46	0.0190	4740	16.0	20.74	496.0
2.441	3	14.07	0.62	95.50	0.0191	4758	16.0	20.74	499.8
2.451	3	15.07	0.67	95.42	0.0197	4707	16.0	20.73	505.0
2.461	3	16.07	0.70	95.50	0.0182	4715	16.0	20.73	506.0
2.471	3	17.07	0.77	95.59	0.0200	4763	16.0	20.73	508.7
2.481	3	18.07	0.87	95.69	0.0229	4848	16.0	20.73	510.7
2.491	3	19.07	0.92	95.66	0.0234	4694	15.0	20.73	511.4
2.501	3	20.07	0.97	95.63	0.0276	4696	15.0	20.73	510.4
2.511	3	21.07	0.96	95.67	0.0203	4734	14.0	20.73	509.0
2.521	3	22.07	1.01	95.69	0.0222	4662	16.0	20.73	509.6
2.531	3	23.07	1.00	95.66	0.0207	4722	16.0	20.73	510.9
2.541	3	24.07	0.94	95.62	0.0182	4721	16.0	20.73	515.8
2.551	3	25.07	1.03	95.70	0.0165	4653	15.0	20.73	519.0
2.561	3	26.07	1.00	95.61	0.0122	4630	16.0	20.73	522.0
2.571	3	27.07	1.05	95.54	0.0137	4632	15.0	20.73	523.0
2.581	3	28.07	1.00	95.62	0.0126	4578	16.0	20.73	524.1
2.591	3	29.07	1.00	95.50	0.0177	4603	16.0	20.73	523.7
2.601	3	30.07	0.95	95.52	0.0168	4639	16.0	20.72	521.6
2.611	3	31.07	0.90	95.55	0.0124	4638	16.0	20.73	514.1
2.621	3	32.07	0.90	95.36	0.0112	4577	16.0	20.73	509.8
2.631	3	33.07	0.91	95.46	0.0148	4647	16.0	20.72	503.0
2.641	3	34.07	0.91	95.61	0.0179	4651	16.0	20.73	498.1
2.651	3	35.07	0.91	95.63	0.0203	4622	16.0	20.72	495.4
2.661	3	36.07	0.91	95.67	0.0142	4638	16.0	20.72	495.2
2.671	3	37.07	0.86	95.72	0.0125	4714	16.0	20.72	495.5
2.681	3	38.07	0.92	95.87	0.0120	4712	16.0	20.73	493.6
2.691	3	39.07	0.91	95.78	0.0142	4598	16.0	20.73	484.6
2.701	3	40.07	0.87	95.64	0.0142	4548	16.0	20.72	477.0
2.711	3	41.07	0.95	95.48	0.0120	4526	15.0	20.72	472.0
2.721	3	42.07	0.97	95.32	0.0092	4438	15.0	20.73	467.9
2.731	3	43.07	0.93	95.40	0.0084	4519	15.0	20.73	466.1
2.741	3	44.07	0.93	95.35	0.0104	4540	13.0	20.73	464.8
2.751	3	45.07	0.88	95.42	0.0083	4479	13.0	20.73	465.0
2.761	3	46.07	0.90	95.35	0.0074	4468	13.0	20.72	464.7
2.771	3	47.07	0.88	95.40	0.0063	4429	13.0	20.73	463.8
2.781	3	48.07	0.94	95.35	0.0061	4487	12.0	20.72	462.9
2.791	3	49.07	0.94	95.45	0.0067	4453	10.0	20.73	456.8
2.801	3	50.07	0.93	95.42	0.0061	4518	11.0	20.72	456.5
2.811	3	51.07	0.90	95.76	0.0061	4540	10.0	20.73	457.0
2.821	3	52.07	0.93	95.86	0.0056	4584	10.0	20.73	458.7
2.831	3	53.07	0.98	95.87	0.0050	4534	9.0	20.72	460.5
2.841	3	54.07	1.08	95.77	0.0054	4540	10.0	20.72	461.3
2.851	3	55.07	1.08	95.74	0.0069	4629	10.0	20.72	463.4
2.861	3	56.07	1.12	95.80	0.0085	4542	9.0	20.73	464.5
2.871	3	57.07	1.18	95.84	0.0047	4614	9.0	20.72	466.1
2.881	3	58.07	1.17	95.83	0.0066	4614	8.0	20.72	467.3
2.891	3	59.07	1.21	95.74	0.0116	4656	8.0	20.72	468.5
2.901	3	60.07	1.32	95.77	0.0214	4677	8.0	20.72	469.0
2.911	3	61.07	1.26	95.82	0.0222	4716	8.0	20.72	466.7
2.921	3	62.07	1.31	96.02	0.0192	4703	9.0	20.72	461.5
2.931	3	63.07	1.26	96.01	0.0162	4742	9.0	20.72	458.5
2.941	3	64.07	1.21	95.76	0.0228	4695	9.0	20.72	455.7
2.951	3	65.07	1.11	95.65	0.0179	4664	9.0	20.72	454.6
2.961	3	66.07	1.06	95.53	0.0174	4670	9.0	20.72	453.2
2.971	3	67.07	1.21	95.47	0.0159	4606	10.0	20.71	451.0
2.981	3	68.07	1.11	95.25	0.0177	4575	9.0	20.71	448.3
2.991	3	69.07	1.01	95.21	0.0266	4675	9.0	20.72	446.3
3.001	3	70.07	0.95	95.33	0.0247	4660	9.0	20.72	447.0
3.011	3	71.07	0.94	95.41	0.0221	4723	9.0	20.73	446.8
3.021	3	72.07	0.93	95.30	0.0254	4693	9.0	20.72	450.7
3.031	3	73.07	0.86	95.56	0.0309	4636	9.0	20.73	455.7
3.041	3	74.07	0.85	95.39	0.0158	4519	8.0	20.72	460.0
3.051	3	75.07	0.79	95.50	0.0178	4753	9.0	20.72	464.2
3.061	3	76.07	0.79	95.73	0.0158	4723	8.0	20.72	464.5
3.071	3	77.07	0.72	95.58	0.0139	4710	8.0	20.72	468.0
3.081	3	78.07	0.66	95.41	0.0153	4658	8.0	20.72	472.2
3.091	3	79.07	0.69	95.52	0.0161	4712	9.0	20.73	475.3
3.101	3	80.07	0.67	95.64	0.0223	4708	9.0	20.72	477.9
3.111	3	81.07	0.61	95.65	0.0159	4679	8.0	20.73	481.8
3.121	3	82.07	0.62	95.72	0.0130	4693	9.0	20.72	484.8
3.131	3	83.07	0.57	95.63	0.0110	4740	8.0	20.73	486.7
3.141	3	84.07	0.52	95.47	0.0196	4551	9.0	20.72	487.5
3.151	3	85.07	0.47	95.49	0.0169	4728	8.0	20.72	485.9
3.161	3	86.07	0.42	95.64	0.0154	4793	9.0	20.71	484.5
3.171	3	87.07	0.37	95.74	0.0118	4795	8.0	20.71	482.7
3.181	3	88.07	0.33	95.40	0.0097	4711	8.0	20.72	485.0
3.191	3	89.07	0.32	95.25	0.0177	4638	8.0	20.72	486.2
3.201	3	90.07	0.32	95.28	0.0138	4706	8.0	20.72	486.0
3.211	3	91.07	0.31	95.33	0.0102	4697	9.0	20.72	485.4
3.221	3	92.07	0.35	95.46	0.0103	4721	9.0	20.72	486.1
3.231	3	93.07	0.38	95.13	0.0071	4682	8.0	20.72	485.9
3.241	3	94.07	0.33	95.13	0.0169	4786	9.0	20.72	487.5
3.251	3	95.07	0.33	95.28	0.0129	4569	9.0	20.72	488.4
3.261	3	96.07	0.38	94.81	0.0098	4544	9.0	20.72	488.8
3.271	3	97.07	0.43	95.05	0.0118	4786	9.0	20.72	488.0
3.281	3	98.07	0.48	95.48	0.0196	4744	9.0	20.72	486.5
3.291	3	99.07	0.47	95.61	0.0146	4811	9.0	20.72	487.4
3.301	3	100.07	0.52	95.26	0.0115	4753	9.0	20.72	489.8
3.311	3	101.07	0.62	95.32	0.0173	4793	9.0	20.72	491.0
3.321	3	102.07	0.58	95.57	0.0175	4804	9.0	20.72	492.5
3.331	3	103.07	0.62	95.43	0.0073	4816	9.0	20.71	490.6
3.341	3	104.07	0.59	95.59	0.0067	4746	9.0	20.72	488.8
3.351	3	105.07	0.61	95.29	0.0069	4743	9.0	20.72	486.3
3.361	3	106.07	0.61	95.27	0.0106	4781	10.0	20.71	482.5
3.371	3	107.07	0.59	95.36	0.0068	4805	10.0	20.71	476.5
3.381	3	108.07	0.60	95.50	0.0041	4882	11.0	20.72	469.5
3.391	3	109.07	0.51	95.17	0.0070	4813	11.0	20.72	464.0
3.401	3	110.07	0.51	95.27	0.0079	4709	12.0	20.71	460.4
3.411	3	111.07	0.51	95.24	0.0063	4533	13.0	20.72	456.3
3.421	3	112.07	0.46	94.89	0.0074	4294	14.0	20.72	449.8
3.431	3	113.07	0.51	94.26	0.0055	4160	15.0	20.72	438.7
3.441	3	114.07	0.71	94.19	0.0024	4145	16.0	20.71	428.7
3.451	3	115.07	0.68	94.09	0.0004	4065	17.0	20.72	419.7
3.461	3	116.07	0.78	92.83	0.0012	4010	17.0	20.72	413.1
3.471	3	117.07	0.87	92.84	0.0022	3955	17.0	20.71	407.6
3.481	3	118.07	0.96	92.58	0.0005	3897	17.0	20.71	404.6
3.491	3	119.07	1.00	93.10	0.0001	4062	18.0	20.72	403.7
3.501	3	120.07	0.95	93.63	0.0003	4178	18.0	20.72	404.8
3.511	3	121.07	0.90	93.81	0.0019	4124	17.0	20.72	407.3
3.521	3	122.07	0.83	93.69	0.0059	4097	18.0	20.71	409.8
3.531	3	123.07	0.82	93.73	0.0050	4045	18.0	20.71	411.7
3.541	3	124.07	0.82	93.65	0.0041	4106	18.0	20.71	412.1
3.551	3	125.07	0.87	93.70	0.0070	4135	18.0	20.71	410.7
3.561	3	126.07	0.93	93.49	0.0070	4004	19.0	20.71	411.5
3.571	3	127.07	0.97	93.01	0.0040	3943	20.0	20.72	409.9
3.581	3	128.07	1.07	90.41	0.0014	3631	19.0	20.72	407.0
3.591	3	129.07	1.06	88.38	0.0028	3663	20.0	20.71	404.5
3.601	3	130.07	1.16	89.89	0.0023	3887	20.0	20.71	399.2
3.611	3	131.07	1.29	93.25	0.0033	4088	20.0	20.71	381.3
3.621	3	132.07	1.28	94.48	0.0058	4160	20.0	20.71	379.2
3.631	3	133.07	1.32	94.18	0.0041	4144	20.0	20.71	377.8
3.641	3	134.07	1.42	94.34	0.0081	4155	20.0	20.71	378.3
3.651	3	135.07	1.52	94.48	0.0034	3993	20.0	20.71	378.9
3.661	3	136.07	1.62	94.09	0.0023	3924	21.0	20.71	377.5
3.671	3	137.07	1.70	93.83	0.0021	3917	20.0	20.71	375.7
3.681	3	138.07	1.77	93.01	0.0020	3866	20.0	20.72	371.1
3.691	3	139.07	2.13	93.15	0.0022	3919	21.0	20.71	369.3
3.701	3	140.07	2.29	93.78	0.0026	4011	21.0	20.71	366.4
3.711	3	141.07	2.39	94.03	0.0020	4000	21.0	20.71	365.4
3.721	3	142.07	4.58	94.10	0.0018	3918	21.0	20.72	362.7
3.731	3	143.07	4.93	93.95	0.0008	3795	20.0	20.72	357.1
3.741	3	144.07	4.76	94.55	0.0001	3746	21.0	20.72	347.5
3.751	3	145.07	4.57	93.31	0.0004	3748	20.0	20.71	330.9
3.761	3	146.07	4.00	92.45	0.0005	3633	19.0	20.72	304.5
3.771	3	147.07	3.96	90.23	0.0003	3680	19.0	20.72	266.9
3.781	3	148.07	3.64	90.15	0.0006	3871	17.0	20.72	218.8
3.791	3	149.07	4.47	90.83	0.0006	4427	16.0	20.72	172.4
3.801	3	150.07	6.73	999.00	0.0000	4553	15.0	20.72	143.6
3.811	3	151.07	7.05	999.00	0.0000	8830	14.0	20.72	136.4
3.821	4	0.91	7.22	999.00	0.0000	7021	14.0	20.72	146.3
3.831	4	1.91	7.14	999.00	0.0000	4419	13.0	20.71	172.9
3.841	4	2.91	7.24	999.00	0.0000	3920	13.0	20.72	218.4
3.851	4	3.91	6.74	999.00	0.0000	3871	13.0	20.72	270.7
3.861	4	4.91	3.48	92.91	0.0003	3883	12.0	20.73	315.6
3.871	4	5.91	1.61	92.88	0.0029	3766	11.0	20.71	348.6
3.881	4	6.91	0.94	91.71	0.0019	3840	11.0	20.71	368.2
3.891	4	7.91	0.77	91.63	0.0032	3906	10.0	20.71	378.9
3.901	4	8.91	0.60	91.74	0.0058	3952	10.0	20.71	385.3
3.911	4	9.91	0.55	91.24	0.0057	3791	10.0	20.71	389.9
3.921	4	10.91	0.60	89.66	0.0040	3732	9.0	20.71	393.8
3.931	4	11.91	0.65	89.67	0.0058	3960	9.0	20.71	399.4
3.941	4	12.91	0.75	91.63	0.0102	3972	9.0	20.71	407.1
3.951	4	13.91	0.75	92.86	0.0131	4004	9.0	20.71	410.7
3.961	4	14.91	0.87	92.98	0.0121	3967	8.0	20.71	414.3
3.971	4	15.91	0.88	92.85	0.0071	3950	9.0	20.71	416.5
3.981	4	16.91	0.94	92.59	0.0066	4037	9.0	20.71	416.5
3.991	4	17.91	1.03	92.85	0.0085	4074	9.0	20.71	414.5
4.001	4	18.91	1.10	93.03	0.0070	4160	9.0	20.71	416.6
4.011	4	19.91	1.17	93.44	0.0065	4125	9.0	20.71	417.8
4.021	4	20.91	1.22	93.42	0.0066	4075	9.0	20.71	416.6
4.031	4	21.91	1.22	93.29	0.0073	4021	9.0	20.71	416.0
4.041	4	22.91	1.22	92.90	0.0054	3869	9.0	20.72	413.4
4.051	4	23.91	1.22	92.58	0.0041	3837	8.0	20.72	411.5
4.061	4	24.91	1.27	92.85	0.0058	3925	8.0	20.71	409.3
4.071	4	25.91	1.22	92.80	0.0075	3847	9.0	20.71	406.5
4.081	4	26.91	1.22	91.46	0.0084	3728	9.0	20.71	404.6
4.091	4	27.91	1.22	91.23	0.0086	3701	8.0	20.71	403.8
4.101	4	28.91	1.22	91.24	0.0091	3658	9.0	20.71	405.0
4.111	4	29.91	1.21	91.08	0.0091	3670	8.0	20.71	403.7
4.121	4	30.91	1.17	90.90	0.0075	3742	8.0	20.71	401.9
4.131	4	31.91	1.16	90.93	0.0129	3781	9.0	20.71	399.4
4.141	4	32.91	1.12	91.68	0.0150	3785	8.0	20.71	397.8
4.151	4	33.91	1.12	91.37	0.0091	3788	9.0	20.70	398.4
4.161	4	34.91	1.12	91.57	0.0082	3810	9.0	20.71	398.4
4.171	4	35.91	1.12	91.80	0.0066	3886	9.0	20.71	398.5
4.181	4	36.91	1.04	92.04	0.0076	3802	9.0	20.71	393.7
4.191	4	37.91	1.05	92.07	0.0069	3882	10.0	20.71	387.0
4.201	4	38.91	0.99	92.04	0.0088	3864	10.0	20.71	381.9
4.211	4	39.91	0.99	92.47	0.0073	4066	10.0	20.72	378.2
4.221	4	40.91	1.05	93.04	0.0111	4061	10.0	20.71	377.4
4.231	4	41.91	0.99	93.09	0.0113	4075	10.0	20.71	379.3
4.241	4	42.91	0.94	92.97	0.0139	4024	10.0	20.72	376.8
4.251	4	43.91	0.94	93.03	0.0110	3989	9.0	20.72	376.2
4.261	4	44.91	0.96	93.05	0.0097	3951	8.0	20.71	374.4
4.271	4	45.91	0.94	93.03	0.0092	4002	9.0	20.71	372.6
4.281	4	46.91	0.89	93.27	0.0112	4082	9.0	20.71	371.2
4.291	4	47.91	0.94	93.60	0.0112	4136	9.0	20.71	369.2
4.301	4	48.91	0.96	93.77	0.0088	4124	10.0	20.72	368.1
4.311	4	49.91	0.95	93.79	0.0076	4012	10.0	20.71	368.2
4.321	4	50.91	0.94	93.74	0.0051	4025	10.0	20.72	369.0
4.331	4	51.91	0.93	93.44	0.0044	4076	9.0	20.72	368.6
4.341	4	52.91	1.04	93.14	0.0094	4023	9.0	20.71	370.0
4.351	4	53.91	1.06	93.22	0.0092	4072	10.0	20.72	370.1
4.361	4	54.91	1.12	93.35	0.0092	4035	9.0	20.71	371.2
4.371	4	55.91	1.42	93.39	0.0086	4036	9.0	20.72	374.0
4.381	4	56.91	1.56	93.43	0.0105	4094	9.0	20.71	376.3
4.391	4	57.91	1.61	93.76	0.0069	4070	9.0	20.72	379.0
4.401	4	58.91	1.56	93.78	0.0066	4077	10.0	20.73	379.9
4.411	4	59.91	1.64	93.80	0.0079	4143	10.0	20.72	381.3
4.421	4	60.91	1.56	93.97	0.0074	4170	10.0	20.72	382.4
4.431	4	61.91	1.55	94.02	0.0075	4141	9.0	20.72	382.4
4.441	4	62.91	1.45	93.80	0.0106	4215	10.0	20.72	382.6
4.451	4	63.91	1.41	93.87	0.0139	4180	10.0	20.72	380.7
4.461	4	64.91	1.36	93.83	0.0139	4169	10.0	20.72	379.5
4.471	4	65.91	1.30	93.76	0.0121	4143	9.0	20.72	378.3
4.481	4	66.91	1.20	93.71	0.0203	4131	10.0	20.73	376.1
4.491	4	67.91	1.15	93.62	0.0252	4127	10.0	20.71	374.3
4.501	4	68.91	1.09	93.55	0.0178	4149	9.0	20.72	373.4
4.511	4	69.91	1.00	93.47	0.0184	4097	9.0	20.73	372.7
4.521	4	70.91	0.95	93.62	0.0121	4079	9.0	20.72	372.3
4.531	4	71.91	0.90	93.47	0.0140	4064	9.0	20.72	373.0
4.541	4	72.91	0.85	93.26	0.0206	4034	10.0	20.72	373.2
4.551	4	73.91	0.81	93.13	0.0211	4067	10.0	20.72	374.8
4.561	4	74.91	0.72	92.96	0.0138	4065	10.0	20.72	376.3
4.571	4	75.91	0.62	92.85	0.0166	3988	9.0	20.72	374.7
4.581	4	76.91	0.60	92.80	0.0141	3931	9.0	20.72	374.7
4.591	4	77.91	0.52	92.49	0.0120	3946	10.0	20.72	373.8
4.601	4	78.91	0.42	92.63	0.0121	3919	9.0	20.72	373.4
4.611	4	79.91	0.38	92.51	0.0155	4024	10.0	20.71	374.9
4.621	4	80.91	0.32	92.46	0.0266	3952	9.0	20.72	379.3
4.631	4	81.91	0.32	92.33	0.0254	3977	10.0	20.72	382.8
4.641	4	82.91	0.25	92.63	0.0166	4056	9.0	20.72	387.3
4.651	4	83.91	0.15	92.80	0.0119	3979	10.0	20.72	388.3
4.661	4	84.91	0.12	92.85	0.0135	4067	10.0	20.72	389.5
4.671	4	85.91	0.08	92.87	0.0174	4120	9.0	20.72	391.1
4.681	4	86.91	0.02	92.99	0.0150	4149	10.0	20.72	392.7
4.691	4	87.91	0.02	93.27	0.0222	4167	10.0	20.73	393.3
4.701	4	88.91	0.04	93.39	0.0198	4180	10.0	20.72	396.0
4.711	4	89.91	0.08	93.36	0.0155	4148	10.0	20.72	399.0
4.721	4	90.91	0.15	93.25	0.0158	4190	10.0	20.72	401.6
4.731	4	91.91	0.14	93.28	0.0206	4130	10.0	20.72	403.4
4.741	4	92.91	0.25	93.39	0.0211	4177	10.0	20.73	406.6
4.751	4	93.91	0.26	93.68	0.0218	4395	10.0	20.72	408.1
4.761	4	94.91	0.27	93.85	0.0217	4436	11.0	20.72	408.2
4.771	4	95.91	0.35	94.18	0.0204	4351	11.0	20.73	409.4
4.781	4	96.91	0.45	94.01	0.0146	4279	11.0	20.72	408.9
4.791	4	97.91	0.41	93.51	0.0249	4173	11.0	20.73	406.9
4.801	4	98.91	0.43	93.47	0.0238	4032	11.0	20.72	400.5
4.811	4	99.91	0.48	92.96	0.0124	3936	11.0	20.73	394.0
4.821	4	100.91	0.53	92.88	0.0081	4139	11.0	20.72	390.5
4.831	4	101.91	0.53	93.67	0.0338	4293	11.0	20.72	391.0
4.841	4	102.91	0.57	93.86	0.0173	4134	10.0	20.72	393.6
4.851	4	103.91	0.58	93.02	0.0124	3961	10.0	20.73	398.6
4.861	4	104.91	0.58	92.83	0.0093	4164	10.0	20.72	401.7
4.871	4	105.91	0.58	93.73	0.0205	4311	9.0	20.73	401.2
4.881	4	106.91	0.57	94.12	0.0138	4310	9.0	20.73	401.4
4.891	4	107.91	0.58	94.04	0.0106	4299	9.0	20.72	404.0
4.901	4	108.91	0.58	93.89	0.0120	4267	10.0	20.73	407.9
4.911	4	109.91	0.52	93.69	0.0171	4169	10.0	20.73	411.0
4.921	4	110.91	0.53	93.64	0.0296	4239	10.0	20.73	411.4
4.931	4	111.91	0.53	93.70	0.0238	4260	10.0	20.73	413.1
4.941	4	112.91	0.58	93.83	0.0181	4206	10.0	20.73	415.3
4.951	4	113.91	0.58	93.79	0.0141	4177	10.0	20.73	415.5
4.961	4	114.91	0.59	93.79	0.0107	4242	10.0	20.73	416.8
4.971	4	115.91	0.58	94.01	0.0108	4385	9.0	20.73	418.9
4.981	4	116.91	0.53	94.11	0.0178	4390	9.0	20.73	421.7
4.991	4	117.91	0.53	94.11	0.0210	4332	9.0	20.73	423.3
5.001	4	118.91	0.49	94.14	0.0174	4325	9.0	20.73	425.2
5.011	4	119.91	0.53	94.09	0.0206	4326	9.0	20.73	425.8
5.021	4	120.91	0.49	94.13	0.0242	4334	9.0	20.73	425.4
5.031	4	121.91	0.48	94.18	0.0230	4331	9.0	20.73	425.8
5.041	4	122.91	0.59	94.45	0.0136	4300	9.0	20.73	430.1
5.051	4	123.91	0.70	94.42	0.0118	4284	9.0	20.73	429.7
5.061	4	124.91	0.75	94.42	0.0136	4334	9.0	20.73	427.9
5.071	4	125.91	0.75	94.45	0.0135	4363	9.0	20.73	428.9
5.081	4	126.91	0.91	94.41	0.0096	4365	9.0	20.73	431.0
5.091	4	127.91	0.99	94.44	0.0098	4304	9.0	20.74	429.8
5.101	4	128.91	1.12	94.27	0.0140	4221	9.0	20.73	428.9
5.111	4	129.91	1.26	94.12	0.0120	4179	9.0	20.73	422.6
5.121	4	130.91	1.46	94.03	0.0142	4262	9.0	20.72	403.9
5.131	4	131.91	1.51	94.11	0.0232	4197	8.0	20.73	400.5
5.141	4	132.91	1.61	94.11	0.0204	4235	9.0	20.74	399.0
5.151	4	133.91	1.76	94.19	0.0274	4224	8.0	20.73	399.6
5.161	4	134.91	1.91	94.37	0.0219	4252	9.0	20.73	402.9
5.171	4	135.91	2.00	94.32	0.0208	4230	8.0	20.73	406.2
5.181	4	136.91	2.10	94.07	0.0208	4162	8.0	20.73	411.0
5.191	4	137.91	2.17	93.37	0.0114	3950	9.0	20.72	413.8
5.201	4	138.91	2.52	92.84	0.0044	4037	9.0	20.73	413.0
5.211	4	139.91	2.63	93.86	0.0105	4271	9.0	20.72	411.8
5.221	4	140.91	2.48	94.81	0.0082	4335	8.0	20.72	411.5
5.231	4	141.91	4.73	96.09	0.0020	4355	9.0	20.73	410.7
5.241	4	142.91	4.79	96.49	0.0031	4319	8.0	20.73	409.3
5.251	4	143.91	4.90	999.00	0.0000	4286	8.0	20.73	403.1
5.261	4	144.91	4.75	99.54	0.0005	4344	9.0	20.73	388.8
5.271	4	145.91	4.13	99.46	0.0003	4262	8.0	20.72	358.4
5.281	4	146.91	3.74	99.27	0.0001	4271	8.0	20.73	315.4
5.291	4	147.91	3.36	999.00	0.0000	4303	8.0	20.72	261.5
5.301	4	148.91	4.68	98.27	0.0002	4256	7.0	20.72	212.7
5.311	4	149.91	6.23	999.00	0.0000	4471	7.0	20.73	182.2
5.321	5	0.27	6.34	999.00	0.0000	11079	7.0	20.72	175.4
5.331	5	1.27	6.34	999.00	0.0000	3795	7.0	20.72	191.0
5.341	5	2.27	6.67	999.00	0.0000	3920	7.0	20.72	229.6
5.351	5	3.27	6.64	999.00	0.0000	3993	7.0	20.72	279.3
5.361	5	4.27	6.12	999.00	0.0000	4097	8.0	20.72	330.5
5.371	5	5.27	2.97	999.00	0.0000	4138	7.0	20.72	370.4
5.381	5	6.27	1.84	93.81	0.0012	4260	8.0	20.72	399.2
5.391	5	7.27	0.50	93.48	0.0040	4133	7.0	20.71	418.1
5.401	5	8.27	0.29	92.96	0.0062	4027	6.0	20.71	429.8
5.411	5	9.27	0.21	91.81	0.0046	3863	7.0	20.71	437.9
5.421	5	10.27	0.27	89.07	0.0033	3630	6.0	20.70	443.5
5.431	5	11.27	0.22	88.06	0.0084	3670	6.0	20.71	445.2
5.441	5	12.27	0.26	88.49	0.0096	3731	6.0	20.71	445.8
5.451	5	13.27	0.31	88.54	0.0117	3784	6.0	20.72	447.4
5.461	5	14.27	0.36	88.42	0.0102	3703	7.0	20.71	446.6
5.471	5	15.27	0.47	88.08	0.0094	3710	7.0	20.72	448.1
5.481	5	16.27	0.52	89.02	0.0031	4552	8.0	20.71	450.0
5.491	5	17.27	0.67	94.50	0.0280	4334	8.0	20.72	458.8
5.501	5	18.27	0.72	93.78	0.0158	3927	8.0	20.71	467.7
5.511	5	19.27	0.76	92.97	0.0093	4227	8.0	20.71	475.0
5.521	5	20.27	0.81	94.03	0.0120	4399	8.0	20.71	477.2
5.531	5	21.27	0.81	94.88	0.0173	4357	9.0	20.71	477.0
5.541	5	22.27	0.81	94.82	0.0134	4322	9.0	20.70	477.8
5.551	5	23.27	0.86	94.73	0.0117	4291	9.0	20.72	478.0
5.561	5	24.27	0.97	94.59	0.0135	4247	8.0	20.71	477.1
5.571	5	25.27	0.97	94.61	0.0136	4230	9.0	20.71	472.9
5.581	5	26.27	1.01	94.68	0.0121	4250	8.0	20.71	470.6
5.591	5	27.27	1.03	94.66	0.0120	4178	9.0	20.70	464.6
5.601	5	28.27	1.01	94.60	0.0103	4253	9.0	20.71	462.0
5.611	5	29.27	1.02	94.60	0.0107	4230	9.0	20.71	458.6
5.621	5	30.27	1.03	94.53	0.0106	4165	9.0	20.70	456.4
5.631	5	31.27	1.01	94.25	0.0084	4059	9.0	20.71	454.9
5.641	5	32.27	0.96	94.09	0.0077	4019	9.0	20.70	453.0
5.651	5	33.27	0.97	94.01	0.0063	4029	9.0	20.70	451.7
5.661	5	34.27	0.92	93.80	0.0046	4043	9.0	20.70	448.6
5.671	5	35.27	0.90	93.80	0.0068	4216	9.0	20.70	444.0
5.681	5	36.27	0.87	94.27	0.0102	4159	9.0	20.71	438.7
5.691	5	37.27	0.86	94.23	0.0085	4220	9.0	20.70	436.8
5.701	5	38.27	0.82	94.45	0.0079	4290	9.0	20.70	435.2
5.711	5	39.27	0.87	94.68	0.0074	4256	9.0	20.70	433.8
5.721	5	40.27	0.83	94.62	0.0087	4259	9.0	20.70	434.0
5.731	5	41.27	0.78	94.79	0.0088	4334	9.0	20.70	434.3
5.741	5	42.27	0.77	94.66	0.0073	4329	9.0	20.70	433.9
5.751	5	43.27	0.72	94.72	0.0077	4339	9.0	20.70	434.2
5.761	5	44.27	0.67	94.89	0.0072	4464	9.0	20.70	432.6
5.771	5	45.27	0.73	94.99	0.0078	4423	9.0	20.70	432.0
5.781	5	46.27	0.68	95.23	0.0085	4477	9.0	20.70	432.3
5.791	5	47.27	0.68	94.98	0.0075	4178	9.0	20.70	430.1
5.801	5	48.27	0.68	94.16	0.0055	4029	8.0	20.70	425.4
5.811	5	49.27	0.73	93.43	0.0075	3962	8.0	20.70	421.0
5.821	5	50.27	0.76	92.79	0.0040	3819	8.0	20.70	416.3
5.831	5	51.27	0.78	91.78	0.0024	3714	8.0	20.69	413.5
5.841	5	52.27	0.83	92.55	0.0029	4055	8.0	20.70	410.7
5.851	5	53.27	0.90	93.86	0.0096	4036	8.0	20.69	409.5
5.861	5	54.27	1.07	93.70	0.0059	3945	9.0	20.69	408.5
5.871	5	55.27	1.13	93.47	0.0057	3983	8.0	20.70	403.7
5.881	5	56.27	1.11	93.44	0.0053	3989	8.0	20.69	400.9
5.891	5	57.27	1.21	93.24	0.0052	3935	9.0	20.69	399.3
5.901	5	58.27	1.28	92.95	0.0045	3886	8.0	20.69	396.2
5.911	5	59.27	1.36	92.94	0.0033	3853	8.0	20.69	393.8
5.921	5	60.27	1.36	93.14	0.0049	3883	8.0	20.70	393.5
5.931	5	61.27	1.36	93.24	0.0034	3875	8.0	20.69	394.3
5.941	5	62.27	1.36	93.05	0.0042	3838	8.0	20.69	392.7
5.951	5	63.27	1.31	92.85	0.0036	3808	8.0	20.69	390.9
5.961	5	64.27	1.26	92.25	0.0021	3745	8.0	20.69	388.8
5.971	5	65.27	1.21	91.81	0.0019	3793	8.0	20.69	388.1
5.981	5	66.27	1.21	92.10	0.0036	3842	8.0	20.69	388.4
5.991	5	67.27	1.22	92.47	0.0043	3878	8.0	20.69	389.2
6.001	5	68.27	1.11	92.68	0.0050	3866	8.0	20.69	387.1
6.011	5	69.27	1.11	92.65	0.0039	3853	8.0	20.69	387.4
6.021	5	70.27	1.11	92.41	0.0044	3796	8.0	20.70	389.9
6.031	5	71.27	1.06	91.71	0.0025	3724	8.0	20.69	390.1
6.041	5	72.27	1.06	91.74	0.0029	3797	8.0	20.69	392.1
6.051	5	73.27	1.02	92.25	0.0057	3804	8.0	20.69	392.8
6.061	5	74.27	0.97	92.61	0.0042	3886	8.0	20.69	392.9
6.071	5	75.27	0.94	92.50	0.0061	3827	8.0	20.69	390.1
6.081	5	76.27	0.94	92.50	0.0041	3846	8.0	20.69	389.7
6.091	5	77.27	0.84	92.59	0.0062	3847	8.0	20.68	388.2
6.101	5	78.27	0.83	92.85	0.0070	3905	7.0	20.69	388.3
6.111	5	79.27	0.73	92.86	0.0080	3854	8.0	20.69	388.8
6.121	5	80.27	0.68	92.56	0.0063	3867	8.0	20.69	388.2
6.131	5	81.27	0.64	92.37	0.0048	3821	8.0	20.69	390.0
6.141	5	82.27	0.59	92.17	0.0063	3826	8.0	20.69	392.6
6.151	5	83.27	0.50	92.02	0.0048	3703	8.0	20.68	394.1
6.161	5	84.27	0.61	91.63	0.0066	3772	8.0	20.69	396.3
6.171	5	85.27	0.51	91.79	0.0085	3767	7.0	20.69	397.2
6.181	5	86.27	0.49	91.59	0.0066	3745	7.0	20.68	394.6
6.191	5	87.27	0.42	90.53	0.0038	3727	8.0	20.68	390.8
6.201	5	88.27	0.42	90.02	0.0038	3688	8.0	20.69	390.1
6.211	5	89.27	0.42	90.25	0.0037	3741	8.0	20.68	387.1
6.221	5	90.27	0.47	91.26	0.0072	3788	7.0	20.68	388.0
6.231	5	91.27	0.52	92.05	0.0078	3841	7.0	20.69	391.1
6.241	5	92.27	0.53	92.45	0.0092	3800	8.0	20.68	389.0
6.251	5	93.27	0.54	92.19	0.0069	3778	8.0	20.68	393.3
6.261	5	94.27	0.52	91.99	0.0062	3778	8.0	20.69	392.3
6.271	5	95.27	0.57	91.69	0.0051	3697	8.0	20.69	390.9
6.281	5	96.27	0.73	92.07	0.0043	3904	8.0	20.68	390.8
6.291	5	97.27	0.67	92.76	0.0081	3918	8.0	20.69	389.6
6.301	5	98.27	0.62	92.99	0.0072	3898	8.0	20.69	389.9
6.311	5	99.27	0.78	92.43	0.0043	3759	8.0	20.68	390.3
6.321	5	100.27	0.78	91.74	0.0032	3820	8.0	20.68	391.2
6.331	5	101.27	0.78	92.16	0.0041	3855	7.0	20.68	390.9
6.341	5	102.27	0.76	92.83	0.0068	3858	8.0	20.68	392.3
6.351	5	103.27	0.66	92.59	0.0049	3848	7.0	20.68	392.3
6.361	5	104.27	0.71	92.19	0.0048	3736	8.0	20.68	393.0
6.371	5	105.27	0.66	91.05	0.0029	3681	8.0	20.69	391.5
6.381	5	106.27	0.66	90.93	0.0024	3853	7.0	20.68	390.3
6.391	5	107.27	0.72	92.07	0.0067	3775	8.0	20.69	392.1
6.401	5	108.27	0.66	92.43	0.0047	3691	7.0	20.68	393.5
6.411	5	109.27	0.66	91.44	0.0023	3929	8.0	20.68	392.4
6.421	5	110.27	0.66	92.38	0.0056	4013	8.0	20.68	392.9
6.431	5	111.27	0.61	93.00	0.0088	3916	7.0	20.68	391.9
6.441	5	112.27	0.61	92.55	0.0044	3799	8.0	20.68	389.5
6.451	5	113.27	0.61	92.18	0.0041	3943	8.0	20.68	389.2
6.461	5	114.27	0.61	92.64	0.0087	3930	7.0	20.68	390.3
6.471	5	115.27	0.61	92.96	0.0067	3921	7.0	20.69	393.3
6.481	5	116.27	0.61	92.78	0.0069	3890	7.0	20.68	398.9
6.491	5	117.27	0.61	92.44	0.0044	3714	8.0	20.68	399.5
6.501	5	118.27	0.65	90.83	0.0024	3714	7.0	20.69	399.3
6.511	5	119.27	0.62	90.38	0.0024	3753	7.0	20.68	397.0
6.521	5	120.27	0.62	90.57	0.0023	3929	7.0	20.69	396.9
6.531	5	121.27	0.62	92.44	0.0031	4146	7.0	20.69	400.2
6.541	5	122.27	0.62	93.62	0.0076	4166	7.0	20.69	402.4
6.551	5	123.27	0.56	93.55	0.0051	3952	7.0	20.70	406.9
6.561	5	124.27	0.66	92.94	0.0048	3850	8.0	20.69	409.4
6.571	5	125.27	0.72	92.32	0.0029	3872	7.0	20.68	408.8
6.581	5	126.27	0.75	92.27	0.0027	4105	8.0	20.69	410.2
6.591	5	127.27	0.82	92.94	0.0068	4008	7.0	20.68	407.4
6.601	5	128.27	0.82	93.63	0.0094	3985	7.0	20.68	408.0
6.611	5	129.27	0.92	92.98	0.0070	3816	8.0	20.68	405.2
6.621	5	130.27	0.96	92.43	0.0058	3754	8.0	20.69	399.5
6.631	5	131.27	0.95	92.12	0.0035	3913	7.0	20.68	375.6
6.641	5	132.27	1.00	93.70	0.0042	4305	7.0	20.69	371.9
6.651	5	133.27	1.11	94.50	0.0126	4071	8.0	20.69	372.5
6.661	5	134.27	1.07	93.74	0.0072	3863	8.0	20.69	374.9
6.671	5	135.27	1.11	92.84	0.0031	3704	7.0	20.69	377.0
6.681	5	136.27	1.21	91.72	0.0016	4181	8.0	20.69	376.9
6.691	5	137.27	1.24	93.97	0.0046	4257	7.0	20.69	377.3
6.701	5	138.27	1.53	94.61	0.0052	4020	8.0	20.69	378.2
6.711	5	139.27	1.64	94.15	0.0017	4155	8.0	20.69	377.8
6.721	5	140.27	2.53	94.47	0.0033	4215	8.0	20.69	376.2
6.731	5	141.27	2.37	95.32	0.0021	4368	8.0	20.69	376.6
6.741	5	142.27	5.21	999.00	0.0000	4290	8.0	20.69	373.7
6.751	5	143.27	5.33	97.93	0.0001	4248	7.0	20.69	371.4
6.761	5	144.27	5.10	999.00	0.0000	3848	8.0	20.69	362.1
6.771	5	145.27	4.75	999.00	0.0000	4008	8.0	20.69	344.4
6.781	5	146.27	4.60	999.00	0.0000	4119	8.0	20.69	314.1
6.791	5	147.27	4.11	999.00	0.0000	3863	8.0	20.69	271.2
6.801	5	148.27	3.68	999.00	0.0000	3685	7.0	20.70	224.3
6.811	5	149.27	5.14	999.00	0.0000	3756	7.0	20.69	185.2
6.821	5	150.27	5.95	999.00	0.0000	4350	6.0	20.69	160.6
6.831	6	0.32	6.03	999.00	0.0000	10499	6.0	20.69	157.6
6.841	6	1.32	5.71	999.00	0.0000	5441	7.0	20.70	167.8
6.851	6	2.32	5.83	999.00	0.0000	3904	7.0	20.69	192.4
6.861	6	3.32	5.40	999.00	0.0000	4002	7.0	20.70	227.0
6.871	6	4.32	4.96	999.00	0.0000	3958	7.0	20.69	268.0
6.881	6	5.32	1.75	999.00	0.0000	3966	7.0	20.69	305.4
6.891	6	6.32	0.99	92.69	0.0009	4005	8.0	20.70	334.6
6.901	6	7.32	0.68	91.98	0.0010	4004	8.0	20.70	357.1
6.911	6	8.32	0.52	91.60	0.0024	3963	8.0	20.69	372.0
6.921	6	9.32	0.31	91.39	0.0008	3912	8.0	20.70	377.8
6.931	6	10.32	0.20	91.01	0.0013	3773	9.0	20.70	382.9
6.941	6	11.32	0.19	90.84	0.0013	3738	8.0	20.70	388.7
6.951	6	12.32	0.08	90.75	0.0017	3755	8.0	20.70	392.0
6.961	6	13.32	0.13	90.44	0.0029	3724	9.0	20.69	394.7
6.971	6	14.32	0.17	90.68	0.0066	3805	8.0	20.70	393.1
6.981	6	15.32	0.18	91.29	0.0101	3869	8.0	20.69	393.5
6.991	6	16.32	0.23	91.74	0.0095	3779	8.0	20.69	393.4
7.001	6	17.32	0.26	91.44	0.0072	3805	9.0	20.70	394.2
7.011	6	18.32	0.27	91.24	0.0068	3807	9.0	20.70	393.9
7.021	6	19.32	0.38	91.31	0.0065	3831	8.0	20.69	394.1
7.031	6	20.32	0.38	91.68	0.0078	3916	9.0	20.70	394.4
7.041	6	21.32	0.37	91.95	0.0119	3925	8.0	20.70	394.7
7.051	6	22.32	0.42	91.27	0.0040	3705	9.0	20.69	396.6
7.061	6	23.32	0.48	90.66	0.0039	3729	9.0	20.70	398.2
7.071	6	24.32	0.48	90.47	0.0053	3738	8.0	20.70	399.3
7.081	6	25.32	0.51	89.84	0.0025	3658	8.0	20.70	399.3
7.091	6	26.32	0.48	88.84	0.0022	3689	9.0	20.71	400.5
7.101	6	27.32	0.44	90.92	0.0041	3916	8.0	20.70	399.5
7.111	6	28.32	0.42	92.48	0.0160	3981	9.0	20.70	401.0
7.121	6	29.32	0.38	92.48	0.0069	3956	9.0	20.70	403.2
7.131	6	30.32	0.43	92.43	0.0061	3975	9.0	20.70	403.5
7.141	6	31.32	0.38	92.48	0.0087	3926	9.0	20.70	401.6
7.151	6	32.32	0.38	92.31	0.0053	3847	9.0	20.70	400.2
7.161	6	33.32	0.44	91.69	0.0060	3855	10.0	20.70	397.0
7.171	6	34.32	0.38	91.75	0.0057	3855	9.0	20.70	394.6
7.181	6	35.32	0.33	91.88	0.0081	3827	9.0	20.70	391.2
7.191	6	36.32	0.39	92.22	0.0072	3893	9.0	20.71	385.7
7.201	6	37.32	0.28	92.20	0.0060	3853	9.0	20.70	378.9
7.211	6	38.32	0.34	92.56	0.0065	3976	9.0	20.70	374.2
7.221	6	39.32	0.34	92.59	0.0058	3957	10.0	20.70	367.4
7.231	6	40.32	0.28	92.50	0.0045	3936	9.0	20.70	364.7
7.241	6	41.32	0.23	92.50	0.0049	4036	9.0	20.70	363.2
7.251	6	42.32	0.23	92.79	0.0060	4004	9.0	20.71	362.5
7.261	6	43.32	0.23	92.87	0.0042	3947	10.0	20.71	361.7
7.271	6	44.32	0.24	92.50	0.0027	3874	9.0	20.71	361.7
7.281	6	45.32	0.28	91.65	0.0043	3836	10.0	20.71	360.4
7.291	6	46.32	0.22	91.33	0.0033	3730	9.0	20.71	361.1
7.301	6	47.32	0.24	91.28	0.0014	3733	9.0	20.72	359.4
7.311	6	48.32	0.24	91.18	0.0028	3850	9.0	20.70	357.3
7.321	6	49.32	0.18	91.69	0.0066	3886	9.0	20.71	355.7
7.331	6	50.32	0.24	91.83	0.0029	3951	9.0	20.70	357.1
7.341	6	51.32	0.25	92.48	0.0030	4008	9.0	20.71	359.8
7.351	6	52.32	0.23	92.61	0.0023	4070	9.0	20.71	361.5
7.361	6	53.32	0.28	92.42	0.0024	3945	9.0	20.71	367.0
7.371	6	54.32	0.33	91.31	0.0016	3780	9.0	20.71	369.8
7.381	6	55.32	0.37	90.05	0.0005	3648	8.0	20.72	370.3
7.391	6	56.32	0.48	88.71	0.0003	3613	8.0	20.72	369.7
7.401	6	57.32	0.53	87.94	0.0007	3755	9.0	20.72	371.3
7.411	6	58.32	0.46	89.11	0.0007	3861	9.0	20.71	371.9
7.421	6	59.32	0.47	91.19	0.0007	3978	9.0	20.73	372.8
7.431	6	60.32	0.52	92.16	0.0009	3937	9.0	20.72	372.6
7.441	6	61.32	0.52	91.51	0.0009	3880	10.0	20.73	372.0
7.451	6	62.32	0.50	91.75	0.0007	3886	9.0	20.74	369.4
7.461	6	63.32	0.47	91.49	0.0006	3859	9.0	20.72	367.3
7.471	6	64.32	0.42	91.20	0.0003	3819	9.0	20.72	366.2
7.481	6	65.32	0.41	92.03	0.0003	3982	9.0	20.73	364.5
7.491	6	66.32	0.37	91.90	0.0015	3975	9.0	20.73	364.6
7.501	6	67.32	0.32	91.61	0.0033	3901	10.0	20.73	365.1
7.511	6	68.32	0.32	92.14	0.0011	3803	10.0	20.73	364.9
7.521	6	69.32	0.27	90.37	0.0012	3782	9.0	20.73	363.7
7.531	6	70.32	0.33	89.60	0.0010	3691	9.0	20.74	364.4
7.541	6	71.32	0.32	88.88	0.0006	3826	9.0	20.73	365.5
7.551	6	72.32	0.33	96.08	0.0003	4071	10.0	20.74	368.3
7.561	6	73.32	0.32	95.80	0.0011	3933	9.0	20.73	369.6
7.571	6	74.32	0.32	90.92	0.0005	3881	9.0	20.73	368.9
7.581	6	75.32	0.27	97.23	0.0003	3853	9.0	20.33	368.0
7.591	6	76.32	0.36	117.81	0.0001	4095	9.0	19.46	370.1
7.601	6	77.32	0.33	92.60	0.0004	4122	9.0	19.22	371.2
7.611	6	78.32	0.38	91.88	0.0004	4073	9.0	19.14	376.1
7.621	6	79.32	0.48	92.49	0.0003	4122	9.0	19.10	379.8
7.631	6	80.32	0.44	107.11	0.0002	4094	9.0	19.15	381.6
7.641	6	81.32	0.55	97.42	0.0001	4056	9.0	19.23	365.4
7.651	6	82.32	0.65	92.74	0.0003	4128	9.0	19.31	364.5
7.661	6	83.32	0.88	97.89	0.0003	4131	9.0	19.41	366.4
7.671	6	84.32	1.28	96.93	0.0002	4265	9.0	19.52	368.3
7.681	6	85.32	1.49	999.00	0.0000	4442	8.0	19.62	368.7
7.691	6	86.32	1.85	999.00	0.0000	4087	8.0	19.73	370.9
7.701	6	87.32	1.98	999.00	0.0000	3965	9.0	19.84	372.4
7.711	6	88.32	1.89	999.00	0.0000	4401	9.0	19.95	374.3
7.721	6	89.32	1.79	999.00	0.0000	4460	8.0	20.04	376.3
7.731	6	90.32	1.65	999.00	0.0000	4447	8.0	20.13	376.7
7.741	6	91.32	1.40	148.26	0.0000	4351	8.0	20.22	374.8
7.751	6	92.32	3.85	999.00	0.0000	4161	8.0	20.32	370.6
7.761	6	93.32	3.81	999.00	0.0000	4073	8.0	20.40	363.8
7.771	6	94.32	3.77	999.00	0.0000	4082	7.0	20.50	352.0
7.781	6	95.32	3.50	999.00	0.0000	4109	7.0	20.58	333.2
7.791	6	96.32	3.09	999.00	0.0000	4128	7.0	20.66	301.5
7.801	6	97.32	2.68	999.00	0.0000	4189	6.0	20.74	253.7
7.811	6	98.32	3.23	999.00	0.0000	4174	6.0	20.82	195.5
7.821	6	99.32	3.03	999.00	0.0000	4433	4.0	20.90	142.7
7.831	6	100.32	2.65	999.00	0.0000	7415	3.0	20.97	106.4
