Geotek MSCL 7.9 - TN336_TC11-11.raw created at 1:53:56 on 1/21/2016.


Core Depth	Section	Sect Depth	CTD 	Tr. Time 	PW Amp   	A Gamma  	Mag Sus  	Temp     	NC Res   
m		cm	mm	µsec		cps	SI x 10^-5	°C	mV

-0.638	before cal	-0.02	1.81	999.00	0.0000	13559	-2.0	19.45	8.1
-0.578	cal	5.98	-0.22	96.65	0.0214	6576	-1.0	19.44	36.9
-0.518	cal	11.98	-2.94	95.34	0.0110	6779	-1.0	19.44	40.5
-0.458	cal	17.98	-2.63	95.60	0.0190	6898	-2.0	19.43	41.3
-0.398	cal	23.98	-0.79	96.49	0.0038	6795	-2.0	19.43	48.1
-0.338	cal	29.98	2.38	97.79	0.0102	6601	-1.0	19.43	100.1
-0.278	cal	35.98	1.26	96.61	0.0074	6597	-1.0	19.43	593.2
-0.218	cal	41.98	-1.74	94.57	0.0037	6707	-1.0	19.42	798.0
-0.158	cal	47.98	-2.60	94.59	0.0468	6601	-1.0	19.43	800.7
-0.098	cal	53.98	-1.99	95.31	0.0094	6650	-1.0	19.44	796.6
-0.038	cal	59.98	0.14	95.62	0.0314	6610	2.0	19.44	564.3
0.002	1	0.20	3.68	999.00	0.0000	11141	12.0	19.44	268.5
0.012	1	1.20	4.34	999.00	0.0000	5524	14.0	19.45	366.7
0.022	1	2.20	4.51	999.00	0.0000	5432	16.0	19.45	494.6
0.032	1	3.20	4.83	999.00	0.0000	5371	18.0	19.45	601.1
0.042	1	4.20	4.40	999.00	0.0000	5384	19.0	19.45	674.0
0.052	1	5.20	0.02	95.67	0.0009	5389	20.0	19.45	727.5
0.062	1	6.20	-1.43	95.70	0.0036	5369	19.0	19.45	759.6
0.072	1	7.20	-2.60	95.01	0.0033	5488	20.0	19.44	777.9
0.082	1	8.20	-2.94	94.52	0.0031	5494	20.0	19.44	779.1
0.092	1	9.20	-3.05	94.77	0.0170	5512	20.0	19.45	776.0
0.102	1	10.20	-3.10	94.84	0.0164	5512	20.0	19.47	778.9
0.112	1	11.20	-3.10	94.84	0.0142	5563	20.0	19.47	786.9
0.122	1	12.20	-3.10	94.87	0.0240	5495	20.0	19.48	794.6
0.132	1	13.20	-3.06	94.87	0.0302	5519	21.0	19.47	800.1
0.142	1	14.20	-3.05	94.92	0.0394	5607	20.0	19.47	806.5
0.152	1	15.20	-3.01	94.91	0.0315	5582	20.0	19.47	810.8
0.162	1	16.20	-3.00	94.96	0.0317	5515	21.0	19.47	815.3
0.172	1	17.20	-2.90	95.08	0.0310	5428	21.0	19.47	817.4
0.182	1	18.20	-2.88	95.12	0.0323	5385	21.0	19.48	818.6
0.192	1	19.20	-2.79	95.12	0.0436	5437	21.0	19.48	820.3
0.202	1	20.20	-2.79	95.27	0.0309	5344	21.0	19.48	822.3
0.212	1	21.20	-2.74	95.59	0.0216	5478	21.0	19.48	821.2
0.222	1	22.20	-2.69	95.47	0.0127	5438	21.0	19.48	823.8
0.232	1	23.20	-2.70	95.26	0.0106	5364	21.0	19.49	825.8
0.242	1	24.20	-2.54	95.93	0.0102	5413	22.0	19.48	828.2
0.252	1	25.20	-2.52	95.40	0.0086	5331	21.0	19.49	832.8
0.262	1	26.20	-2.47	95.45	0.0201	5439	21.0	19.48	830.5
0.272	1	27.20	-2.44	95.72	0.0182	5402	22.0	19.48	833.0
0.282	1	28.20	-2.34	95.66	0.0096	5358	21.0	19.49	832.9
0.292	1	29.20	-2.29	95.78	0.0106	5373	22.0	19.48	818.7
0.302	1	30.20	-2.29	95.46	0.0077	5385	21.0	19.49	799.7
0.312	1	31.20	-2.24	95.61	0.0134	5335	21.0	19.49	763.6
0.322	1	32.20	-2.19	95.78	0.0169	5370	21.0	19.48	748.8
0.332	1	33.20	-2.15	95.72	0.0137	5276	20.0	19.49	743.4
0.342	1	34.20	-2.09	95.78	0.0130	5323	19.0	19.49	736.1
0.352	1	35.20	-1.87	95.69	0.0136	5367	19.0	19.49	729.5
0.362	1	36.20	-1.66	96.01	0.0251	5335	20.0	19.49	706.0
0.372	1	37.20	-1.31	96.40	0.0125	5276	19.0	19.49	696.7
0.382	1	38.20	-1.26	96.00	0.0041	5256	19.0	19.50	698.7
0.392	1	39.20	-1.25	95.82	0.0065	5292	19.0	19.49	695.9
0.402	1	40.20	-0.06	97.01	0.0079	5369	19.0	19.49	695.9
0.412	1	41.20	-0.32	96.91	0.0125	5254	19.0	19.49	692.7
0.422	1	42.20	-0.62	96.47	0.0009	5174	19.0	19.50	682.2
0.432	1	43.20	-0.50	96.11	0.0053	5186	18.0	19.50	661.1
0.442	1	44.20	-0.67	96.03	0.0060	5171	18.0	19.50	620.2
0.452	1	45.20	-0.80	96.49	0.0050	5204	17.0	19.50	553.6
0.462	1	46.20	-0.67	97.01	0.0021	5175	18.0	19.51	451.7
0.472	1	47.20	0.59	98.06	0.0008	5194	17.0	19.51	339.7
0.482	1	48.20	2.88	114.66	0.0001	5588	17.0	19.51	265.1
0.492	1	49.20	3.64	999.00	0.0000	11797	17.0	19.51	251.6
0.502	2	0.79	3.49	999.00	0.0000	5552	18.0	19.51	297.4
0.512	2	1.79	3.71	999.00	0.0000	5231	17.0	19.51	378.8
0.522	2	2.79	3.42	999.00	0.0000	5136	19.0	19.51	475.0
0.532	2	3.79	3.06	999.00	0.0000	5269	19.0	19.51	559.8
0.542	2	4.79	0.40	123.64	0.0001	5320	19.0	19.51	618.5
0.552	2	5.79	-1.85	101.60	0.0013	5281	18.0	19.51	657.7
0.562	2	6.79	-2.21	94.25	0.0009	5268	19.0	19.51	680.1
0.572	2	7.79	-2.39	94.72	0.0009	5383	19.0	19.52	688.5
0.582	2	8.79	-2.74	95.08	0.0010	5315	20.0	19.51	693.8
0.592	2	9.79	-2.76	94.60	0.0014	5275	20.0	19.52	697.7
0.602	2	10.79	-2.85	95.04	0.0026	5358	21.0	19.51	700.3
0.612	2	11.79	-2.77	95.04	0.0031	5276	21.0	19.51	699.9
0.622	2	12.79	-2.74	94.89	0.0028	5277	22.0	19.51	700.2
0.632	2	13.79	-2.71	94.97	0.0029	5232	22.0	19.51	695.7
0.642	2	14.79	-2.68	95.27	0.0048	5233	22.0	19.52	696.9
0.652	2	15.79	-2.64	95.27	0.0034	5245	23.0	19.52	697.5
0.662	2	16.79	-2.59	95.28	0.0027	5242	23.0	19.52	693.5
0.672	2	17.79	-2.54	94.75	0.0031	5268	25.0	19.52	688.9
0.682	2	18.79	-2.48	95.03	0.0047	5168	25.0	19.53	680.2
0.692	2	19.79	-2.40	95.13	0.0034	5248	26.0	19.53	675.8
0.702	2	20.79	-2.38	95.07	0.0062	5079	29.0	19.53	671.8
0.712	2	21.79	-2.38	95.31	0.0055	5214	30.0	19.52	669.7
0.722	2	22.79	-2.39	101.26	0.0013	5207	34.0	19.53	665.4
0.732	2	23.79	-2.33	95.60	0.0013	5220	37.0	19.54	658.2
0.742	2	24.79	-2.28	95.09	0.0022	5093	41.0	19.53	648.5
0.752	2	25.79	-2.23	95.04	0.0038	4904	47.0	19.53	641.8
0.762	2	26.79	-2.25	95.24	0.0098	4763	51.0	19.53	638.1
0.772	2	27.79	-2.25	94.91	0.0140	4395	54.0	19.53	639.4
0.782	2	28.79	-2.25	93.91	0.0083	4285	54.0	19.54	644.6
0.792	2	29.79	-2.14	93.26	0.0063	4467	50.0	19.53	650.4
0.802	2	30.79	-2.19	94.95	0.0115	5006	43.0	19.53	644.3
0.812	2	31.79	-2.23	95.82	0.0216	4995	37.0	19.53	642.5
0.822	2	32.79	-2.23	95.82	0.0158	5088	33.0	19.54	645.0
0.832	2	33.79	-2.16	95.71	0.0222	5078	30.0	19.54	650.1
0.842	2	34.79	-2.20	95.92	0.0175	5050	29.0	19.54	650.6
0.852	2	35.79	-2.15	95.86	0.0165	5044	30.0	19.55	639.5
0.862	2	36.79	-2.10	95.79	0.0153	5069	32.0	19.58	625.9
0.872	2	37.79	-2.09	95.83	0.0164	5080	35.0	19.62	609.0
0.882	2	38.79	-2.11	95.80	0.0173	5026	39.0	19.67	588.1
0.892	2	39.79	-2.15	95.84	0.0179	4976	45.0	19.73	565.5
0.902	2	40.79	-2.09	95.80	0.0190	4827	52.0	19.75	545.3
0.912	2	41.79	-2.09	95.65	0.0177	4674	61.0	19.77	527.9
0.922	2	42.79	-2.11	95.39	0.0246	4576	69.0	19.78	510.3
0.932	2	43.79	-2.14	95.15	0.0213	4401	77.0	19.78	494.2
0.942	2	44.79	-2.11	94.55	0.0188	4298	82.0	19.77	483.4
0.952	2	45.79	-2.14	93.83	0.0143	4075	86.0	19.78	471.2
0.962	2	46.79	-2.13	93.96	0.0065	4480	89.0	19.78	458.7
0.972	2	47.79	-2.08	95.03	0.0272	4642	92.0	19.78	452.4
0.982	2	48.79	-2.01	95.38	0.0174	4530	97.0	19.78	449.9
0.992	2	49.79	-1.94	94.88	0.0150	4243	102.0	19.79	450.5
1.002	2	50.79	-1.90	93.90	0.0105	4075	106.0	19.78	450.0
1.012	2	51.79	-1.91	93.26	0.0115	3915	106.0	19.77	447.0
1.022	2	52.79	-1.86	93.29	0.0076	4154	103.0	19.61	442.9
1.032	2	53.79	-1.61	94.45	0.0253	4553	99.0	19.56	438.8
1.042	2	54.79	-1.44	95.38	0.0382	4524	96.0	19.54	442.2
1.052	2	55.79	-1.42	94.84	0.0360	4216	93.0	19.55	445.8
1.062	2	56.79	-1.27	94.12	0.0234	4102	90.0	19.54	452.0
1.072	2	57.79	-1.25	93.77	0.0265	4147	84.0	19.55	453.0
1.082	2	58.79	-1.21	94.54	0.0432	4543	76.0	19.54	456.4
1.092	2	59.79	-1.22	95.31	0.0527	4672	70.0	19.55	461.0
1.102	2	60.79	-1.27	95.66	0.0396	4526	64.0	19.55	468.9
1.112	2	61.79	-1.37	95.18	0.0378	4452	59.0	19.55	482.9
1.122	2	62.79	-1.37	94.98	0.0340	4465	53.0	19.56	492.6
1.132	2	63.79	-1.41	95.29	0.0547	4866	49.0	19.55	497.1
1.142	2	64.79	-1.44	95.70	0.0603	4805	44.0	19.56	500.6
1.152	2	65.79	-1.47	95.63	0.0376	4778	39.0	19.55	507.8
1.162	2	66.79	-1.52	95.64	0.0534	4767	36.0	19.56	514.0
1.172	2	67.79	-1.57	95.68	0.0410	4834	33.0	19.55	518.5
1.182	2	68.79	-1.73	95.75	0.0405	4831	32.0	19.55	525.9
1.192	2	69.79	-1.67	95.79	0.0317	4819	30.0	19.56	531.0
1.202	2	70.79	-1.76	95.73	0.0250	4886	29.0	19.56	535.8
1.212	2	71.79	-1.79	95.76	0.0235	4874	29.0	19.56	539.3
1.222	2	72.79	-1.84	95.62	0.0319	4828	28.0	19.56	547.0
1.232	2	73.79	-1.93	95.58	0.0451	4866	27.0	19.56	551.8
1.242	2	74.79	-2.02	95.55	0.0486	4938	27.0	19.56	555.3
1.252	2	75.79	-2.11	95.33	0.0765	4860	26.0	19.57	562.0
1.262	2	76.79	-2.19	95.39	0.0718	4836	26.0	19.56	563.1
1.272	2	77.79	-2.31	95.36	0.0532	4880	27.0	19.56	561.9
1.282	2	78.79	-2.30	95.50	0.0440	4858	27.0	19.56	561.3
1.292	2	79.79	-2.40	95.34	0.0350	4798	28.0	19.57	557.9
1.302	2	80.79	-2.48	95.36	0.0344	4804	29.0	19.57	553.8
1.312	2	81.79	-2.51	95.09	0.0312	4751	30.0	19.57	552.3
1.322	2	82.79	-2.71	94.94	0.0472	4712	32.0	19.57	548.4
1.332	2	83.79	-2.66	95.00	0.0433	4771	33.0	19.57	538.2
1.342	2	84.79	-2.71	94.85	0.0412	4690	35.0	19.57	529.6
1.352	2	85.79	-2.74	94.84	0.0550	4619	37.0	19.57	525.4
1.362	2	86.79	-2.84	94.75	0.0520	4601	38.0	19.57	520.3
1.372	2	87.79	-2.80	94.64	0.0491	4593	39.0	19.57	514.9
1.382	2	88.79	-2.85	94.47	0.0425	4497	40.0	19.58	510.9
1.392	2	89.79	-2.85	94.57	0.0354	4509	41.0	19.57	506.4
1.402	2	90.79	-2.86	94.63	0.0272	4557	43.0	19.57	501.2
1.412	2	91.79	-2.85	94.83	0.0308	4535	43.0	19.57	497.8
1.422	2	92.79	-2.79	94.72	0.0223	4496	44.0	19.58	492.9
1.432	2	93.79	-2.79	94.81	0.0248	4615	45.0	19.58	485.2
1.442	2	94.79	-2.64	94.84	0.0386	4565	48.0	19.58	478.4
1.452	2	95.79	-2.58	94.60	0.0451	4422	51.0	19.58	467.3
1.462	2	96.79	-2.49	94.44	0.0641	4535	57.0	19.58	459.4
1.472	2	97.79	-2.38	94.84	0.0623	4549	64.0	19.58	451.4
1.482	2	98.79	-2.33	94.83	0.0653	4329	72.0	19.58	442.7
1.492	2	99.79	-2.28	92.87	0.0132	3865	78.0	19.59	439.6
1.502	2	100.79	-2.24	90.65	0.0077	3631	78.0	19.59	438.4
1.512	2	101.79	-2.32	89.63	0.0038	3884	74.0	19.59	441.0
1.522	2	102.79	-2.34	92.97	0.0041	4396	65.0	19.59	447.2
1.532	2	103.79	-2.19	94.64	0.0491	4542	57.0	19.59	458.6
1.542	2	104.79	-2.22	95.02	0.0428	4657	49.0	19.59	470.7
1.552	2	105.79	-2.28	95.24	0.0248	4709	44.0	19.59	483.2
1.562	2	106.79	-2.30	94.76	0.0275	4538	41.0	19.59	492.3
1.572	2	107.79	-2.30	94.60	0.0413	4620	36.0	19.59	497.8
1.582	2	108.79	-2.28	95.00	0.0458	4661	31.0	19.59	501.2
1.592	2	109.79	-2.35	95.00	0.0523	4650	29.0	19.60	504.9
1.602	2	110.79	-2.36	94.83	0.0338	4461	26.0	19.59	506.8
1.612	2	111.79	-2.35	94.67	0.0271	4574	24.0	19.60	512.5
1.622	2	112.79	-2.40	95.05	0.0237	4668	22.0	19.61	512.4
1.632	2	113.79	-2.40	95.22	0.0213	4795	20.0	19.61	509.9
1.642	2	114.79	-2.45	95.26	0.0210	4739	19.0	19.61	512.6
1.652	2	115.79	-2.54	95.34	0.0160	4820	17.0	19.62	515.6
1.662	2	116.79	-2.55	95.26	0.0160	4824	17.0	19.61	521.9
1.672	2	117.79	-2.55	95.04	0.0320	4765	16.0	19.61	529.6
1.682	2	118.79	-2.55	95.00	0.0356	4741	16.0	19.61	532.6
1.692	2	119.79	-2.55	95.21	0.0310	4712	16.0	19.62	534.5
1.702	2	120.79	-2.55	95.02	0.0322	4739	16.0	19.61	534.6
1.712	2	121.79	-2.53	95.02	0.0430	4760	15.0	19.62	535.0
1.722	2	122.79	-2.55	95.12	0.0382	4745	16.0	19.62	535.0
1.732	2	123.79	-2.49	95.11	0.0346	4727	15.0	20.38	534.8
1.742	2	124.79	-2.38	95.17	0.0330	4708	16.0	20.61	533.4
1.752	2	125.79	-2.38	95.08	0.0362	4697	16.0	20.73	530.5
1.762	2	126.79	-2.33	95.22	0.0335	4733	15.0	20.92	525.7
1.772	2	127.79	-2.25	95.21	0.0337	4677	16.0	20.90	525.4
1.782	2	128.79	-2.18	95.27	0.0327	4672	16.0	20.91	520.2
1.792	2	129.79	-2.13	95.24	0.0232	4691	16.0	20.94	518.4
1.802	2	130.79	-1.96	95.24	0.0353	4644	15.0	20.97	514.6
1.812	2	131.79	-1.93	95.24	0.0268	4697	15.0	21.03	489.8
1.822	2	132.79	-1.87	95.28	0.0252	4692	15.0	21.07	484.5
1.832	2	133.79	-1.68	95.31	0.0206	4693	15.0	21.13	480.0
1.842	2	134.79	-1.62	95.27	0.0265	4664	15.0	21.19	474.5
1.852	2	135.79	-1.62	95.28	0.0183	4686	14.0	21.24	465.7
1.862	2	136.79	-1.52	95.35	0.0190	4686	14.0	21.29	452.3
1.872	2	137.79	-1.43	95.44	0.0142	4686	13.0	21.33	433.6
1.882	2	138.79	-1.21	95.39	0.0095	4736	12.0	21.37	408.2
1.892	2	139.79	-1.00	95.79	0.0058	4707	12.0	21.43	387.4
1.902	2	140.79	-0.70	96.64	0.0009	5007	12.0	21.51	376.4
1.912	2	141.79	-0.40	99.72	0.0004	5093	11.0	21.57	371.0
1.922	2	142.79	0.91	999.00	0.0000	5119	10.0	21.65	370.0
1.932	2	143.79	1.39	999.00	0.0000	4913	10.0	21.72	364.4
1.942	2	144.79	1.24	999.00	0.0000	5037	10.0	21.79	343.7
1.952	2	145.79	1.09	999.00	0.0000	4994	11.0	21.86	310.5
1.962	2	146.79	0.48	999.00	0.0000	4848	11.0	21.91	286.0
1.972	2	147.79	0.33	999.00	0.0000	4376	11.0	21.99	271.4
1.982	2	148.79	0.40	999.00	0.0000	4750	10.0	22.04	242.1
1.992	2	149.79	0.66	999.00	0.0000	4844	9.0	22.08	190.7
2.002	2	150.79	0.57	999.00	0.0000	4978	7.0	22.14	140.5
2.012	2	151.79	0.06	999.00	0.0000	10410	5.0	22.19	108.5
