Geotek MSCL 7.9 - TN336_TC33-38.raw created at 5:26:43 on 1/25/2016.


Core Depth	Section	Sect Depth	CTD 	Tr. Time 	PW Amp   	A Gamma  	Mag Sus  	Temp     	NC Res   
m		cm	mm	µsec		cps	SI x 10^-5	°C	mV

-0.638	cal	0.00	4.79	999.00	0.0000	12595	8.0	18.13	-0.5
-0.578	cal	6.00	2.29	96.97	0.0174	6586	-2.0	18.12	-7.1
-0.518	cal	12.00	-0.36	95.72	0.0383	6656	-2.0	18.12	-8.6
-0.458	cal	18.00	-0.22	96.04	0.0260	6756	-2.0	18.13	-9.6
-0.398	cal	24.00	1.66	97.28	0.0024	6756	-2.0	18.14	-1.6
-0.338	cal	30.00	4.81	98.13	0.0075	6500	-1.0	18.14	58.6
-0.278	cal	36.00	3.68	96.91	0.0085	6641	-1.0	18.14	626.7
-0.218	cal	42.00	-0.31	94.82	0.0063	6510	-1.0	18.14	810.4
-0.158	cal	48.00	-0.50	94.88	0.0177	6601	-2.0	18.14	781.1
-0.098	cal	54.00	1.42	96.03	0.0054	6614	-1.0	18.14	766.4
-0.038	cal	60.00	1.62	95.47	0.0043	6515	3.0	18.15	530.3
0.002	1	0.20	6.85	999.00	0.0000	6595	14.0	18.16	207.9
0.012	1	1.20	6.31	999.00	0.0000	4783	17.0	18.16	251.1
0.022	1	2.20	6.47	98.05	0.0007	4686	20.0	18.15	325.7
0.032	1	3.20	6.32	97.77	0.0014	4707	22.0	18.16	399.2
0.042	1	4.20	5.70	999.00	0.0000	4857	23.0	18.16	456.3
0.052	1	5.20	0.81	94.86	0.0013	4921	24.0	18.16	491.2
0.062	1	6.20	0.01	94.25	0.0027	4798	25.0	18.16	515.5
0.072	1	7.20	-0.05	94.30	0.0076	4674	25.0	18.16	531.7
0.082	1	8.20	-0.13	93.40	0.0055	4597	26.0	18.16	543.1
0.092	1	9.20	-0.16	93.77	0.0175	4833	26.0	18.17	550.5
0.102	1	10.20	-0.13	94.84	0.0203	4754	26.0	18.15	558.7
0.112	1	11.20	-0.17	94.93	0.0142	4750	26.0	18.16	569.6
0.122	1	12.20	-0.23	94.91	0.0164	4828	26.0	18.16	577.3
0.132	1	13.20	-0.19	95.30	0.0149	4972	26.0	18.16	582.7
0.142	1	14.20	-0.18	95.48	0.0136	4854	26.0	18.16	581.9
0.152	1	15.20	-0.18	95.29	0.0097	4720	26.0	18.16	582.8
0.162	1	16.20	-0.10	95.25	0.0082	4890	26.0	18.17	578.9
0.172	1	17.20	-0.08	95.58	0.0092	4900	27.0	18.15	576.5
0.182	1	18.20	-0.08	95.12	0.0091	4783	28.0	18.16	575.6
0.192	1	19.20	-0.03	95.22	0.0101	4777	29.0	18.16	567.2
0.202	1	20.20	-0.03	95.28	0.0098	4799	29.0	18.17	553.5
0.212	1	21.20	0.02	95.39	0.0077	4843	29.0	18.17	537.1
0.222	1	22.20	0.02	95.25	0.0071	4687	30.0	18.17	520.9
0.232	1	23.20	0.07	94.99	0.0096	4621	31.0	18.17	510.2
0.242	1	24.20	0.12	95.05	0.0084	4614	40.0	18.17	501.4
0.252	1	25.20	0.12	94.95	0.0064	4504	31.0	18.17	495.1
0.262	1	26.20	0.20	94.58	0.0049	4434	31.0	18.17	488.8
0.272	1	27.20	0.23	94.45	0.0048	4648	31.0	18.17	483.9
0.282	1	28.20	0.27	95.23	0.0080	4853	30.0	18.17	479.8
0.292	1	29.20	0.30	95.36	0.0075	4812	31.0	18.18	477.0
0.302	1	30.20	0.32	95.00	0.0067	4533	30.0	18.16	473.1
0.312	1	31.20	0.35	94.56	0.0040	4387	29.0	18.17	460.6
0.322	1	32.20	0.35	94.58	0.0071	4526	30.0	18.17	454.7
0.332	1	33.20	0.34	95.23	0.0070	4647	30.0	18.17	447.2
0.342	1	34.20	0.35	95.40	0.0061	4620	29.0	18.17	424.7
0.352	1	35.20	0.30	95.41	0.0057	4649	30.0	18.18	419.5
0.362	1	36.20	0.35	95.38	0.0068	4476	29.0	18.18	415.3
0.372	1	37.20	0.35	94.92	0.0058	4288	29.0	18.18	415.9
0.382	1	38.20	0.36	94.47	0.0033	4179	29.0	18.18	419.3
0.392	1	39.20	0.35	94.32	0.0042	4335	28.0	18.18	422.4
0.402	1	40.20	0.35	94.56	0.0040	4221	27.0	18.18	422.5
0.412	1	41.20	0.56	94.74	0.0016	4535	27.0	18.19	422.6
0.422	1	42.20	0.51	95.11	0.0044	4723	26.0	18.19	425.3
0.432	1	43.20	0.56	96.06	0.0042	4839	26.0	18.18	428.3
0.442	1	44.20	0.61	96.21	0.0055	4787	26.0	18.18	433.3
0.452	1	45.20	0.51	96.18	0.0044	4845	26.0	18.18	437.1
0.462	1	46.20	0.48	96.21	0.0044	4785	26.0	18.18	442.3
0.472	1	47.20	0.45	96.20	0.0052	4751	26.0	18.19	445.9
0.482	1	48.20	0.40	96.17	0.0043	4675	26.0	18.19	448.4
0.492	1	49.20	0.71	96.17	0.0032	4693	26.0	18.19	451.8
0.502	1	50.20	0.80	96.07	0.0042	4840	25.0	18.18	453.2
0.512	1	51.20	0.70	96.09	0.0061	4811	25.0	18.19	455.4
0.522	1	52.20	0.78	96.43	0.0033	4840	25.0	18.20	454.5
0.532	1	53.20	0.85	96.29	0.0050	4907	25.0	18.20	454.8
0.542	1	54.20	0.80	96.17	0.0034	4738	25.0	18.21	456.1
0.552	1	55.20	0.66	95.79	0.0043	4845	24.0	18.21	455.4
0.562	1	56.20	0.65	95.78	0.0047	4766	24.0	18.21	452.5
0.572	1	57.20	0.65	95.63	0.0040	4663	25.0	18.20	448.4
0.582	1	58.20	0.65	95.67	0.0047	4776	24.0	18.21	443.6
0.592	1	59.20	0.59	95.89	0.0048	4774	24.0	18.22	441.1
0.602	1	60.20	0.56	95.91	0.0042	4759	24.0	18.21	439.5
0.612	1	61.20	0.59	95.79	0.0049	4719	23.0	18.21	441.5
0.622	1	62.20	0.60	95.84	0.0044	4701	23.0	18.22	445.4
0.632	1	63.20	0.55	95.98	0.0041	4768	22.0	18.22	447.9
0.642	1	64.20	0.54	96.01	0.0038	4792	23.0	18.22	448.8
0.652	1	65.20	0.59	96.05	0.0036	4815	22.0	18.23	450.2
0.662	1	66.20	0.57	96.03	0.0041	4893	23.0	18.22	447.5
0.672	1	67.20	0.60	95.99	0.0045	4813	22.0	18.22	446.5
0.682	1	68.20	0.61	95.76	0.0033	4817	23.0	18.23	442.8
0.692	1	69.20	0.64	95.79	0.0040	4775	23.0	18.22	421.8
0.702	1	70.20	0.70	95.81	0.0052	4784	23.0	18.23	410.4
0.712	1	71.20	0.75	95.84	0.0043	4615	24.0	18.24	401.5
0.722	1	72.20	0.80	95.69	0.0044	4667	24.0	18.24	372.8
0.732	1	73.20	0.85	95.61	0.0041	4475	25.0	18.23	365.8
0.742	1	74.20	0.85	95.23	0.0044	4410	25.0	18.23	363.0
0.752	1	75.20	0.90	94.92	0.0032	4325	25.0	18.24	363.0
0.762	1	76.20	1.00	94.57	0.0037	4268	25.0	18.24	363.9
0.772	1	77.20	1.05	94.67	0.0024	4336	24.0	18.24	365.4
0.782	1	78.20	1.16	94.54	0.0007	4523	23.0	18.24	362.2
0.792	1	79.20	1.15	95.41	0.0005	4583	24.0	18.25	361.2
0.802	1	80.20	1.41	102.08	0.0004	4891	22.0	18.25	362.9
0.812	1	81.20	1.56	118.97	0.0001	4850	22.0	18.25	369.8
0.822	1	82.20	1.72	999.00	0.0000	4861	22.0	18.25	376.4
0.832	1	83.20	3.03	999.00	0.0000	4795	22.0	18.25	380.2
0.842	1	84.20	3.45	999.00	0.0000	4925	22.0	18.26	376.6
0.852	1	85.20	3.56	999.00	0.0000	4778	22.0	18.26	365.2
0.862	1	86.20	3.37	999.00	0.0000	4832	22.0	18.26	342.6
0.872	1	87.20	2.86	999.00	0.0000	4830	21.0	18.26	302.9
0.882	1	88.20	2.48	999.00	0.0000	4874	21.0	18.26	243.5
0.892	1	89.20	2.68	999.00	0.0000	4839	21.0	18.27	168.4
0.902	1	90.20	3.82	999.00	0.0000	4906	21.0	18.26	102.6
0.912	1	91.20	4.94	999.00	0.0000	6218	20.0	18.26	66.6
0.922	1	92.20	4.92	999.00	0.0000	11033	21.0	18.27	59.4
0.932	2	0.99	5.19	999.00	0.0000	4669	21.0	18.27	80.4
0.942	2	1.99	5.51	999.00	0.0000	4697	23.0	18.28	123.9
0.952	2	2.99	5.27	110.43	0.0001	4713	24.0	18.28	177.7
0.962	2	3.99	4.78	999.00	0.0000	4706	24.0	18.27	234.2
0.972	2	4.99	0.26	94.67	0.0014	4720	25.0	18.28	278.8
0.982	2	5.99	-0.45	94.79	0.0081	4687	26.0	18.28	311.6
0.992	2	6.99	-0.57	94.73	0.0038	4577	26.0	18.28	337.6
1.002	2	7.99	-0.67	94.16	0.0095	4736	26.0	18.28	354.0
1.012	2	8.99	-0.79	94.79	0.0317	4716	27.0	18.28	364.3
1.022	2	9.99	-0.75	94.86	0.0299	4778	27.0	18.28	374.0
1.032	2	10.99	-0.74	94.88	0.0341	4705	27.0	18.28	382.4
1.042	2	11.99	-0.69	94.98	0.0351	4780	28.0	18.28	393.8
1.052	2	12.99	-0.69	95.08	0.0346	4717	28.0	18.28	395.0
1.062	2	13.99	-0.64	95.03	0.0310	4811	28.0	18.29	401.9
1.072	2	14.99	-0.59	95.06	0.0357	4789	28.0	18.28	407.0
1.082	2	15.99	-0.54	95.08	0.0447	4838	28.0	18.29	408.0
1.092	2	16.99	-0.49	95.13	0.0395	4781	29.0	18.29	408.5
1.102	2	17.99	-0.44	95.22	0.0420	4662	30.0	18.30	406.1
1.112	2	18.99	-0.39	95.24	0.0303	4672	30.0	18.30	405.5
1.122	2	19.99	-0.39	95.01	0.0264	4532	31.0	18.30	405.5
1.132	2	20.99	-0.33	94.87	0.0178	4586	30.0	18.31	406.0
1.142	2	21.99	-0.28	95.02	0.0221	4473	30.0	18.31	409.0
1.152	2	22.99	-0.25	95.20	0.0174	4651	30.0	18.31	408.0
1.162	2	23.99	-0.23	95.48	0.0193	4678	29.0	18.32	410.4
1.172	2	24.99	-0.18	95.68	0.0100	4740	29.0	18.33	408.8
1.182	2	25.99	-0.12	95.51	0.0014	4754	29.0	18.33	407.3
1.192	2	26.99	-0.12	95.50	0.0069	4662	28.0	18.33	405.5
1.202	2	27.99	-0.08	95.50	0.0052	4800	29.0	18.33	403.8
1.212	2	28.99	-0.07	95.68	0.0059	4767	29.0	18.33	400.5
1.222	2	29.99	-0.03	95.76	0.0027	4688	30.0	18.34	400.1
1.232	2	30.99	-0.18	95.32	0.0060	4664	29.0	18.37	387.8
1.242	2	31.99	-0.19	95.78	0.0079	4658	30.0	18.37	379.3
1.252	2	32.99	-0.19	95.64	0.0041	4658	30.0	18.37	370.7
1.262	2	33.99	-0.13	95.59	0.0021	4622	31.0	18.37	359.2
1.272	2	34.99	-0.13	95.49	0.0024	4589	32.0	18.38	345.6
1.282	2	35.99	-0.15	94.89	0.0039	4565	33.0	18.38	332.1
1.292	2	36.99	-0.13	95.47	0.0041	4464	33.0	18.38	323.2
1.302	2	37.99	-0.17	95.66	0.0016	4504	33.0	18.39	321.7
1.312	2	38.99	-0.17	95.69	0.0020	4487	35.0	18.39	322.0
1.322	2	39.99	-0.20	94.81	0.0053	4449	35.0	18.38	325.2
1.332	2	40.99	-0.19	94.53	0.0078	4296	36.0	18.69	327.0
1.342	2	41.99	-0.22	94.04	0.0070	4181	35.0	18.70	326.0
1.352	2	42.99	-0.24	94.08	0.0062	4431	35.0	18.90	324.1
1.362	2	43.99	-0.28	94.69	0.0123	4516	34.0	19.23	321.8
1.372	2	44.99	-0.25	95.24	0.0070	4568	32.0	19.41	323.3
1.382	2	45.99	-0.28	95.33	0.0075	4642	32.0	19.55	329.1
1.392	2	46.99	-0.23	95.68	0.0102	4732	32.0	19.67	333.1
1.402	2	47.99	-0.23	95.69	0.0082	4710	31.0	19.81	341.5
1.412	2	48.99	-0.13	95.80	0.0049	4598	31.0	19.98	338.9
1.422	2	49.99	-0.03	95.76	0.0030	4657	31.0	20.13	336.0
1.432	2	50.99	-0.04	95.69	0.0064	4591	31.0	20.28	310.4
1.442	2	51.99	0.06	95.09	0.0068	4520	31.0	20.42	307.5
1.452	2	52.99	0.21	95.13	0.0072	4526	40.0	20.50	307.7
1.462	2	53.99	0.23	94.94	0.0143	4543	30.0	20.60	310.1
1.472	2	54.99	0.33	94.87	0.0163	4406	31.0	20.67	310.5
1.482	2	55.99	0.39	94.47	0.0089	4305	30.0	20.74	310.5
1.492	2	56.99	0.44	94.97	0.0059	4707	29.0	20.83	308.0
1.502	2	57.99	0.72	95.76	0.0114	4710	30.0	20.89	302.4
1.512	2	58.99	0.75	95.85	0.0067	4705	29.0	20.96	300.2
1.522	2	59.99	0.86	95.73	0.0088	4631	29.0	21.02	295.8
1.532	2	60.99	0.95	95.62	0.0038	4581	30.0	21.07	284.7
1.542	2	61.99	3.17	96.56	0.0011	4657	29.0	21.11	266.4
1.552	2	62.99	3.14	97.22	0.0041	4607	28.0	21.16	241.2
1.562	2	63.99	2.98	999.00	0.0000	4527	29.0	21.23	202.9
1.572	2	64.99	2.76	98.57	0.0001	4483	27.0	21.27	154.5
1.582	2	65.99	2.53	999.00	0.0000	4496	27.0	21.29	95.0
1.592	2	66.99	2.17	999.00	0.0000	5055	24.0	21.31	33.5
1.602	2	67.99	2.47	999.00	0.0000	5437	22.0	21.32	-25.2
1.612	2	68.99	2.40	999.00	0.0000	5352	18.0	21.35	-67.8
1.622	2	69.99	1.88	999.00	0.0000	5991	13.0	21.37	-91.7
