Geotek MSCL 7.9 - TN336_TC41-50.raw created at 16:35:49 on 1/26/2016.


Core Depth	Section	Sect Depth	CTD 	Tr. Time 	PW Amp   	A Gamma  	Mag Sus  	Temp     	NC Res   
m		cm	mm	µsec		cps	SI x 10^-5	°C	mV

-0.638	before cal	-0.02	3.43	103.02	0.0002	15039	-1.0	19.04	5.7
-0.578	cal	5.98	2.44	95.72	0.0114	6154	-2.0	19.03	25.2
-0.518	cal	11.98	0.01	95.42	0.0171	6219	-1.0	19.03	26.4
-0.458	cal	17.98	0.29	95.42	0.0420	6284	-2.0	19.03	25.8
-0.398	cal	23.98	2.94	96.63	0.0011	6212	-1.0	19.06	33.9
-0.338	cal	29.98	4.56	97.67	0.0127	6230	-2.0	19.05	86.6
-0.278	cal	35.98	3.29	96.34	0.0067	6187	-2.0	19.06	581.8
-0.218	cal	41.98	0.72	94.62	0.0034	6261	-1.0	19.06	766.7
-0.158	cal	47.98	0.47	94.86	0.0613	6297	-1.0	19.06	760.4
-0.098	cal	53.98	1.54	95.30	0.0180	6294	-1.0	19.07	777.5
-0.038	cal	59.98	2.30	95.62	0.0289	6200	2.0	19.07	605.3
0.002	1	0.20	6.20	999.00	0.0000	9845	14.0	19.08	236.7
0.012	1	1.20	6.40	99.74	0.0003	5186	17.0	19.08	322.0
0.022	1	2.20	6.28	99.28	0.0007	4949	19.0	19.09	473.3
0.032	1	3.20	5.97	98.05	0.0015	4992	21.0	19.09	617.5
0.042	1	4.20	5.34	98.24	0.0002	5018	22.0	19.09	704.6
0.052	1	5.20	1.65	96.17	0.0002	5061	22.0	19.09	749.6
0.062	1	6.20	1.06	95.71	0.0028	5127	23.0	19.08	769.0
0.072	1	7.20	0.51	95.64	0.0072	5071	22.0	19.09	777.7
0.082	1	8.20	0.16	95.63	0.0074	5133	23.0	19.08	776.0
0.092	1	9.20	0.22	95.34	0.0062	5078	23.0	19.09	760.0
0.102	1	10.20	0.28	95.41	0.0049	5158	23.0	19.09	738.6
0.112	1	11.20	0.37	95.35	0.0053	5128	23.0	19.09	735.3
0.122	1	12.20	0.32	95.65	0.0073	5170	23.0	19.09	725.9
0.132	1	13.20	0.39	95.88	0.0065	5178	23.0	19.09	714.9
0.142	1	14.20	0.46	95.86	0.0055	5113	24.0	19.09	707.2
0.152	1	15.20	0.59	96.11	0.0029	5342	23.0	19.09	701.7
0.162	1	16.20	0.69	96.14	0.0026	5249	23.0	19.10	705.6
0.172	1	17.20	1.00	96.04	0.0049	5123	24.0	19.09	702.0
0.182	1	18.20	1.07	96.10	0.0043	5143	23.0	19.09	697.6
0.192	1	19.20	1.36	96.08	0.0036	5119	23.0	19.09	692.9
0.202	1	20.20	1.62	96.16	0.0020	5208	23.0	19.10	687.9
0.212	1	21.20	2.95	96.48	0.0007	4963	23.0	19.10	680.1
0.222	1	22.20	2.90	97.27	0.0022	5031	23.0	19.09	672.0
0.232	1	23.20	3.38	999.00	0.0000	4913	24.0	19.10	658.0
0.242	1	24.20	3.43	999.00	0.0000	4934	24.0	19.10	633.6
0.252	1	25.20	3.25	102.58	0.0001	4839	24.0	19.10	592.6
0.262	1	26.20	3.03	97.55	0.0002	4794	823.0	19.09	526.8
0.272	1	27.20	2.63	107.15	0.0002	4871	24.0	19.10	419.1
0.282	1	28.20	4.65	98.29	0.0002	4846	23.0	19.11	295.8
0.292	1	29.20	6.70	999.00	0.0000	5068	22.0	19.10	225.9
0.302	2	0.46	6.81	999.00	0.0000	7260	23.0	19.10	237.9
0.312	2	1.46	6.77	999.00	0.0000	4718	22.0	19.10	332.1
0.322	2	2.46	6.72	98.51	0.0004	4748	21.0	19.10	456.5
0.332	2	3.46	6.27	98.01	0.0008	4772	22.0	19.11	556.4
0.342	2	4.46	5.31	999.00	0.0000	4874	21.0	19.10	622.8
0.352	2	5.46	1.67	95.83	0.0025	4881	21.0	19.10	664.2
0.362	2	6.46	0.80	95.22	0.0045	4921	22.0	19.10	685.2
0.372	2	7.46	0.17	94.87	0.0050	4956	21.0	19.10	693.0
0.382	2	8.46	-0.06	94.98	0.0023	5159	21.0	19.10	695.5
0.392	2	9.46	-0.07	95.22	0.0061	4966	22.0	19.10	695.7
0.402	2	10.46	-0.11	95.15	0.0103	4892	22.0	19.11	695.7
0.412	2	11.46	-0.12	95.24	0.0104	4888	22.0	19.11	693.0
0.422	2	12.46	-0.12	95.39	0.0066	4962	22.0	19.11	691.0
0.432	2	13.46	-0.07	95.40	0.0058	4899	23.0	19.11	690.6
0.442	2	14.46	-0.03	95.63	0.0051	4881	23.0	19.12	691.5
0.452	2	15.46	0.00	95.48	0.0050	4954	22.0	19.11	695.7
0.462	2	16.46	0.04	95.43	0.0058	4968	22.0	19.11	697.9
0.472	2	17.46	0.11	95.66	0.0055	5005	22.0	19.10	699.4
0.482	2	18.46	0.14	95.63	0.0048	4967	22.0	19.11	700.1
0.492	2	19.46	0.24	95.67	0.0111	4881	21.0	19.10	699.3
0.502	2	20.46	0.31	95.64	0.0129	4862	22.0	19.11	699.2
0.512	2	21.46	0.39	95.73	0.0195	4899	22.0	19.11	696.9
0.522	2	22.46	0.44	95.79	0.0149	4827	22.0	19.11	696.7
0.532	2	23.46	0.50	95.92	0.0115	4867	22.0	19.11	696.3
0.542	2	24.46	0.55	95.87	0.0064	4880	22.0	19.11	693.5
0.552	2	25.46	0.55	95.76	0.0126	4847	24.0	19.11	689.0
0.562	2	26.46	0.56	95.69	0.0169	4754	24.0	19.12	683.1
0.572	2	27.46	0.54	95.77	0.0164	4817	24.0	19.11	682.9
0.582	2	28.46	0.60	95.87	0.0110	4776	25.0	19.11	684.7
0.592	2	29.46	0.55	96.08	0.0060	4730	25.0	19.11	684.8
0.602	2	30.46	0.55	95.66	0.0049	4711	25.0	19.11	682.5
0.612	2	31.46	0.50	96.03	0.0064	4779	25.0	19.12	677.0
0.622	2	32.46	0.52	96.41	0.0049	4789	24.0	19.12	674.2
0.632	2	33.46	0.50	96.05	0.0033	4842	24.0	19.11	672.1
0.642	2	34.46	0.55	95.76	0.0075	4835	24.0	19.11	669.0
0.652	2	35.46	0.52	96.11	0.0058	4920	24.0	19.11	666.6
0.662	2	36.46	0.55	96.43	0.0052	4882	25.0	19.12	657.9
0.672	2	37.46	0.54	95.94	0.0061	4832	24.0	19.12	647.4
0.682	2	38.46	0.51	95.54	0.0084	4777	25.0	19.12	637.8
0.692	2	39.46	0.50	95.71	0.0066	4785	25.0	19.12	629.6
0.702	2	40.46	0.50	95.38	0.0040	4704	25.0	19.12	624.2
0.712	2	41.46	0.50	95.54	0.0073	4666	26.0	19.12	620.9
0.722	2	42.46	0.55	95.69	0.0111	4775	26.0	19.12	617.6
0.732	2	43.46	0.49	95.76	0.0105	4781	26.0	19.12	614.9
0.742	2	44.46	0.56	95.86	0.0139	4800	26.0	19.13	608.8
0.752	2	45.46	0.55	95.78	0.0179	4735	27.0	19.12	603.6
0.762	2	46.46	0.50	95.71	0.0305	4695	27.0	19.12	598.3
0.772	2	47.46	0.56	95.70	0.0289	4662	27.0	19.13	594.4
0.782	2	48.46	0.60	95.72	0.0322	4732	27.0	19.13	591.7
0.792	2	49.46	0.65	95.81	0.0293	4651	27.0	19.13	590.5
0.802	2	50.46	0.67	95.80	0.0319	4696	27.0	19.13	587.3
0.812	2	51.46	0.74	95.83	0.0327	4776	27.0	19.13	585.2
0.822	2	52.46	0.75	95.80	0.0478	4792	27.0	19.13	588.0
0.832	2	53.46	0.79	96.08	0.0267	4733	27.0	19.13	592.9
0.842	2	54.46	0.99	95.79	0.0315	4828	28.0	19.14	598.2
0.852	2	55.46	1.07	96.00	0.0397	4832	28.0	19.13	601.6
0.862	2	56.46	1.16	96.10	0.0295	4823	29.0	19.13	600.0
0.872	2	57.46	1.26	96.16	0.0285	4727	31.0	19.14	595.6
0.882	2	58.46	1.26	96.09	0.0279	4642	32.0	19.13	592.4
0.892	2	59.46	1.36	96.07	0.0369	4630	33.0	19.14	590.9
0.902	2	60.46	1.36	96.04	0.0358	4600	33.0	19.14	588.8
0.912	2	61.46	1.31	96.10	0.0282	4556	33.0	19.14	587.2
0.922	2	62.46	1.31	95.85	0.0454	4640	33.0	19.14	583.8
0.932	2	63.46	1.26	96.01	0.0384	4582	33.0	19.14	581.8
0.942	2	64.46	1.17	95.80	0.0587	4549	33.0	19.14	581.2
0.952	2	65.46	1.07	95.89	0.0501	4597	32.0	19.15	582.7
0.962	2	66.46	1.00	95.77	0.0532	4616	32.0	19.15	587.5
0.972	2	67.46	0.94	95.91	0.0375	4634	32.0	19.14	593.5
0.982	2	68.46	0.90	95.85	0.0420	4645	32.0	19.15	595.7
0.992	2	69.46	0.80	95.72	0.0501	4641	33.0	19.15	596.2
1.002	2	70.46	0.78	95.81	0.0458	4590	33.0	19.15	593.4
1.012	2	71.46	0.72	95.76	0.0444	4565	34.0	19.15	590.1
1.022	2	72.46	0.67	95.72	0.0296	4567	34.0	19.15	586.0
1.032	2	73.46	0.63	95.71	0.0376	4629	35.0	19.15	577.7
1.042	2	74.46	0.58	95.64	0.0369	4611	36.0	19.15	569.5
1.052	2	75.46	0.56	95.51	0.0432	4524	37.0	19.16	564.8
1.062	2	76.46	0.52	95.71	0.0357	4547	37.0	19.15	562.9
1.072	2	77.46	0.43	95.35	0.0428	4573	39.0	19.17	561.4
1.082	2	78.46	0.38	95.62	0.0295	4609	40.0	19.16	565.1
1.092	2	79.46	0.28	95.46	0.0275	4512	40.0	19.16	569.4
1.102	2	80.46	0.28	95.41	0.0325	4632	41.0	19.16	573.1
1.112	2	81.46	0.23	95.51	0.0280	4659	42.0	19.16	576.3
1.122	2	82.46	0.17	95.56	0.0295	4667	43.0	19.16	576.5
1.132	2	83.46	0.18	95.62	0.0227	4589	44.0	19.16	573.8
1.142	2	84.46	0.18	95.62	0.0243	4521	45.0	19.16	569.4
1.152	2	85.46	0.13	95.59	0.0240	4516	45.0	19.17	564.6
1.162	2	86.46	0.07	95.45	0.0256	4513	47.0	19.17	559.4
1.172	2	87.46	0.07	95.59	0.0259	4513	49.0	19.17	555.1
1.182	2	88.46	0.09	95.39	0.0280	4534	51.0	19.17	548.7
1.192	2	89.46	0.09	95.45	0.0344	4514	52.0	19.18	544.6
1.202	2	90.46	0.12	95.41	0.0339	4502	54.0	19.17	541.0
1.212	2	91.46	0.14	95.47	0.0326	4453	56.0	19.17	539.2
1.222	2	92.46	0.21	95.42	0.0258	4427	59.0	19.18	539.3
1.232	2	93.46	0.19	95.49	0.0259	4361	61.0	19.18	539.1
1.242	2	94.46	0.30	95.28	0.0240	4308	65.0	19.18	538.2
1.252	2	95.46	0.30	95.23	0.0298	4273	68.0	19.18	536.5
1.262	2	96.46	0.30	95.25	0.0275	4227	72.0	19.18	531.7
1.272	2	97.46	0.36	95.23	0.0230	4246	74.0	19.18	524.3
1.282	2	98.46	0.37	95.23	0.0297	4300	78.0	19.19	518.9
1.292	2	99.46	0.40	95.24	0.0305	4239	78.0	19.18	517.4
1.302	2	100.46	0.34	95.02	0.0249	4198	78.0	19.19	518.9
1.312	2	101.46	0.34	95.22	0.0286	4308	78.0	19.19	523.6
1.322	2	102.46	0.40	95.43	0.0234	4431	77.0	19.19	527.1
1.332	2	103.46	0.35	95.64	0.0201	4375	78.0	19.19	528.0
1.342	2	104.46	0.39	95.31	0.0178	4362	78.0	19.19	527.0
1.352	2	105.46	0.36	95.62	0.0287	4541	81.0	19.19	522.2
1.362	2	106.46	0.30	95.77	0.0248	4475	83.0	19.22	514.7
1.372	2	107.46	0.30	95.61	0.0159	4427	86.0	19.22	505.6
1.382	2	108.46	0.35	95.36	0.0152	4382	89.0	19.22	500.5
1.392	2	109.46	0.35	95.29	0.0170	4414	93.0	19.23	500.0
1.402	2	110.46	0.35	95.07	0.0293	4398	96.0	19.23	500.3
1.412	2	111.46	0.45	95.24	0.0185	4212	101.0	19.23	499.4
1.422	2	112.46	0.45	94.96	0.0280	4141	105.0	19.23	491.7
1.432	2	113.46	0.41	94.92	0.0192	4169	108.0	19.23	485.4
1.442	2	114.46	0.39	94.93	0.0223	4207	112.0	20.15	478.4
1.452	2	115.46	0.45	94.95	0.0220	4215	115.0	20.33	472.0
1.462	2	116.46	0.39	94.82	0.0309	4147	118.0	20.35	464.9
1.472	2	117.46	0.39	94.72	0.0232	4094	122.0	20.44	458.8
1.482	2	118.46	0.40	94.68	0.0357	4168	125.0	20.54	451.8
1.492	2	119.46	0.39	94.78	0.0269	4071	129.0	20.58	447.4
1.502	2	120.46	0.44	94.41	0.0177	3963	131.0	20.56	445.7
1.512	2	121.46	0.47	94.39	0.0269	3971	134.0	20.51	447.7
1.522	2	122.46	0.49	94.44	0.0236	4007	137.0	20.56	445.2
1.532	2	123.46	0.53	94.29	0.0253	3902	138.0	20.60	443.7
1.542	2	124.46	0.53	94.46	0.0159	4134	139.0	20.59	444.2
1.552	2	125.46	0.61	95.01	0.0326	4268	140.0	20.47	441.4
1.562	2	126.46	0.72	95.38	0.0273	4193	143.0	20.34	423.9
1.572	2	127.46	0.79	95.40	0.0190	4285	148.0	20.19	423.7
1.582	2	128.46	0.84	95.45	0.0223	4244	153.0	20.00	423.6
1.592	2	129.46	0.88	95.07	0.0082	3847	158.0	19.80	425.6
1.602	2	130.46	0.91	93.97	0.0060	3777	160.0	19.53	427.9
1.612	2	131.46	1.06	92.98	0.0018	3516	160.0	19.45	430.2
1.622	2	132.46	1.16	93.92	0.0014	3578	158.0	19.35	430.4
1.632	2	133.46	1.55	95.00	0.0037	4018	154.0	19.20	428.3
1.642	2	134.46	1.82	95.61	0.0072	3808	151.0	19.10	425.0
1.652	2	135.46	1.81	94.84	0.0041	3885	147.0	19.01	419.2
1.662	2	136.46	1.83	95.23	0.0040	3990	144.0	18.98	411.8
1.672	2	137.46	3.55	96.17	0.0010	4005	141.0	19.03	401.2
1.682	2	138.46	3.75	96.20	0.0009	3944	138.0	19.07	387.6
1.692	2	139.46	4.12	95.22	0.0002	3846	135.0	19.18	369.9
1.702	2	140.46	4.35	95.66	0.0008	3900	130.0	19.16	341.5
1.712	2	141.46	3.89	96.20	0.0015	3908	124.0	18.92	297.6
1.722	2	142.46	3.64	98.65	0.0003	4931	113.0	19.08	235.2
1.732	2	143.46	3.59	999.00	0.0000	5996	98.0	19.31	167.8
1.742	2	144.46	3.06	999.00	0.0000	6218	79.0	19.50	109.0
1.752	2	145.46	2.55	999.00	0.0000	7733	60.0	19.69	77.1
