Geotek MSCL 7.9 - TN336_TC26-30.raw created at 1:57:21 on 1/24/2016.


Core Depth	Section	Sect Depth	CTD 	Tr. Time 	PW Amp   	A Gamma  	Mag Sus  	Temp     	NC Res   
m		cm	mm	µsec		cps	SI x 10^-5	°C	mV

-0.637	before cal	-0.01	3.50	999.00	0.0000	13088	-1.0	18.19	6.4
-0.577	cal	5.99	2.80	97.08	0.0057	6690	-2.0	18.19	27.8
-0.517	cal	11.99	-0.03	95.68	0.0331	6583	-1.0	18.19	29.9
-0.457	cal	17.99	0.36	96.03	0.0308	6732	-1.0	18.20	31.5
-0.397	cal	23.99	1.61	96.48	0.0017	6731	-2.0	18.22	38.8
-0.337	cal	29.99	4.65	97.82	0.0133	6668	-1.0	18.22	97.8
-0.277	cal	35.99	3.82	96.81	0.0047	6519	-1.0	18.22	592.1
-0.217	cal	41.99	0.74	94.87	0.0026	6526	-1.0	18.23	786.0
-0.157	cal	47.99	-0.07	94.91	0.0392	6569	-1.0	18.23	787.1
-0.097	cal	53.99	0.54	95.30	0.0115	6641	-1.0	18.24	784.1
-0.037	cal	59.99	2.42	95.84	0.0185	6581	2.0	18.26	579.6
0.003	1	0.30	6.70	999.00	0.0000	8361	12.0	18.26	278.3
0.013	1	1.30	6.69	999.00	0.0000	5207	15.0	18.26	356.1
0.023	1	2.30	6.89	97.81	0.0028	5119	16.0	18.26	464.2
0.033	1	3.30	6.63	97.78	0.0008	5191	17.0	18.27	564.6
0.043	1	4.30	5.61	98.33	0.0001	5323	18.0	18.27	644.5
0.053	1	5.30	1.08	94.96	0.0055	5155	19.0	18.27	687.6
0.063	1	6.30	0.30	95.08	0.0055	5145	20.0	18.28	712.6
0.073	1	7.30	0.09	94.93	0.0036	5227	19.0	18.27	729.8
0.083	1	8.30	-0.02	94.48	0.0058	5196	20.0	18.27	742.0
0.093	1	9.30	-0.08	94.74	0.0159	5235	20.0	18.28	752.1
0.103	1	10.30	-0.08	94.94	0.0135	5171	21.0	18.28	758.6
0.113	1	11.30	-0.03	94.83	0.0090	5212	20.0	18.28	764.7
0.123	1	12.30	0.02	94.91	0.0171	5211	21.0	18.28	768.8
0.133	1	13.30	0.05	95.02	0.0144	5207	20.0	18.28	769.1
0.143	1	14.30	0.02	95.05	0.0221	5166	21.0	18.28	768.9
0.153	1	15.30	0.07	95.09	0.0133	5204	20.0	18.29	767.2
0.163	1	16.30	0.17	95.04	0.0218	5166	21.0	18.29	765.8
0.173	1	17.30	0.17	95.18	0.0156	5171	20.0	18.28	769.0
0.183	1	18.30	0.23	95.02	0.0156	5289	20.0	18.29	772.1
0.193	1	19.30	0.25	95.13	0.0223	5174	20.0	18.29	774.5
0.203	1	20.30	0.27	95.23	0.0227	5195	20.0	18.29	778.3
0.213	1	21.30	0.33	95.23	0.0124	5112	20.0	18.29	781.9
0.223	1	22.30	0.33	94.95	0.0249	5120	20.0	18.33	782.5
0.233	1	23.30	0.43	95.38	0.0158	5120	20.0	18.33	783.2
0.243	1	24.30	0.38	95.30	0.0151	5080	19.0	18.33	781.5
0.253	1	25.30	0.43	95.34	0.0130	5160	20.0	18.34	783.0
0.263	1	26.30	0.48	95.31	0.0140	5135	20.0	18.34	784.2
0.273	1	27.30	0.48	95.17	0.0130	5133	20.0	18.34	784.0
0.283	1	28.30	0.54	95.21	0.0258	5050	20.0	18.34	782.4
0.293	1	29.30	0.59	95.41	0.0244	5118	20.0	18.34	783.0
0.303	1	30.30	0.59	95.63	0.0248	5156	20.0	18.34	769.1
0.313	1	31.30	0.64	95.77	0.0196	5168	20.0	18.34	730.1
0.323	1	32.30	0.69	95.74	0.0114	5165	20.0	18.34	718.5
0.333	1	33.30	0.75	95.66	0.0114	5113	20.0	18.34	707.4
0.343	1	34.30	0.77	95.71	0.0176	4942	20.0	18.35	703.8
0.353	1	35.30	0.79	95.75	0.0108	5118	19.0	18.35	698.3
0.363	1	36.30	0.82	95.59	0.0129	5168	19.0	18.34	693.7
0.373	1	37.30	0.84	95.59	0.0165	5181	19.0	18.35	691.3
0.383	1	38.30	0.89	95.67	0.0161	5114	19.0	18.35	687.6
0.393	1	39.30	0.84	95.83	0.0100	5075	18.0	18.35	694.1
0.403	1	40.30	0.81	95.73	0.0093	5185	18.0	18.36	685.9
0.413	1	41.30	0.83	95.68	0.0091	5104	18.0	18.36	674.6
0.423	1	42.30	0.83	95.62	0.0079	5087	18.0	18.36	637.7
0.433	1	43.30	0.83	95.46	0.0209	5092	17.0	18.36	630.6
0.443	1	44.30	0.77	95.64	0.0065	5084	17.0	18.36	625.2
0.453	1	45.30	0.78	95.29	0.0055	4994	17.0	18.37	619.1
0.463	1	46.30	0.69	95.38	0.0110	5059	17.0	18.36	613.7
0.473	1	47.30	0.69	95.64	0.0086	5129	17.0	18.36	609.0
0.483	1	48.30	0.84	95.62	0.0063	5085	16.0	18.37	608.6
0.493	1	49.30	1.14	95.51	0.0067	5022	16.0	18.37	605.1
0.503	1	50.30	1.24	95.29	0.0075	4966	17.0	18.37	605.6
0.513	1	51.30	1.58	95.61	0.0110	4968	16.0	18.38	604.3
0.523	1	52.30	1.62	95.48	0.0078	4888	16.0	18.38	602.0
0.533	1	53.30	3.74	95.93	0.0003	4884	16.0	18.38	598.9
0.543	1	54.30	3.91	96.08	0.0023	4810	16.0	18.38	593.5
0.553	1	55.30	3.76	999.00	0.0000	4902	14.0	18.39	585.0
0.563	1	56.30	3.56	96.77	0.0007	4963	15.0	18.39	564.4
0.573	1	57.30	3.65	999.00	0.0000	4976	14.0	18.38	527.8
0.583	1	58.30	3.40	999.00	0.0000	5029	13.0	18.39	468.6
0.593	1	59.30	3.50	999.00	0.0000	4943	13.0	18.39	383.0
0.603	1	60.30	4.13	104.85	0.0001	5030	12.0	18.38	289.3
0.613	1	61.30	6.87	999.00	0.0000	5681	12.0	18.39	228.1
0.623	2	0.06	7.09	999.00	0.0000	8958	12.0	18.39	226.6
0.633	2	1.06	7.30	999.00	0.0000	4866	12.0	18.40	283.1
0.643	2	2.06	7.20	98.39	0.0004	4849	13.0	18.39	373.5
0.653	2	3.06	6.81	98.10	0.0013	4809	13.0	18.39	459.4
0.663	2	4.06	6.30	108.74	0.0001	4928	13.0	18.40	523.6
0.673	2	5.06	1.83	95.20	0.0022	4941	12.0	18.40	565.4
0.683	2	6.06	0.73	95.38	0.0021	4991	13.0	18.40	590.8
0.693	2	7.06	0.25	95.05	0.0019	4992	13.0	18.40	605.6
0.703	2	8.06	0.11	95.23	0.0112	4903	13.0	18.40	612.6
0.713	2	9.06	0.05	95.42	0.0120	5055	13.0	18.40	616.3
0.723	2	10.06	0.05	95.63	0.0070	5046	13.0	18.40	620.3
0.733	2	11.06	0.05	95.26	0.0082	5004	14.0	18.40	618.5
0.743	2	12.06	0.05	95.33	0.0108	5022	13.0	18.40	613.5
0.753	2	13.06	0.05	95.74	0.0069	5108	13.0	18.40	610.2
0.763	2	14.06	0.06	95.63	0.0035	5148	14.0	18.40	607.4
0.773	2	15.06	0.05	95.34	0.0045	5097	14.0	18.40	608.1
0.783	2	16.06	0.05	95.69	0.0041	5129	15.0	18.40	608.3
0.793	2	17.06	0.16	95.69	0.0046	5070	15.0	18.41	608.1
0.803	2	18.06	0.10	95.27	0.0037	5001	15.0	18.40	603.0
0.813	2	19.06	0.14	95.28	0.0064	4926	16.0	18.41	602.3
0.823	2	20.06	0.21	95.25	0.0078	4899	16.0	18.40	601.6
0.833	2	21.06	0.15	95.29	0.0153	5014	17.0	18.41	604.8
0.843	2	22.06	0.19	95.35	0.0105	4905	17.0	18.41	609.9
0.853	2	23.06	0.23	95.23	0.0178	4864	18.0	18.41	613.9
0.863	2	24.06	0.24	95.22	0.0194	4763	18.0	18.41	614.4
0.873	2	25.06	0.33	95.42	0.0092	4806	18.0	18.41	610.7
0.883	2	26.06	0.40	95.24	0.0074	4880	18.0	18.42	608.1
0.893	2	27.06	0.34	95.63	0.0068	4974	17.0	18.42	606.6
0.903	2	28.06	0.39	95.66	0.0024	4927	18.0	18.42	609.3
0.913	2	29.06	0.44	95.13	0.0066	4824	17.0	18.43	615.6
0.923	2	30.06	0.44	95.24	0.0228	4856	17.0	18.42	618.9
0.933	2	31.06	0.43	95.23	0.0164	4795	17.0	18.43	613.3
0.943	2	32.06	0.48	95.15	0.0122	4811	18.0	18.42	609.9
0.953	2	33.06	0.54	95.31	0.0122	4795	18.0	18.43	604.6
0.963	2	34.06	0.54	95.61	0.0131	4854	18.0	18.42	597.6
0.973	2	35.06	0.53	95.54	0.0088	4767	19.0	18.43	592.2
0.983	2	36.06	0.59	95.34	0.0075	4815	18.0	18.43	586.2
0.993	2	37.06	0.59	95.33	0.0096	4726	19.0	18.43	581.3
1.003	2	38.06	0.55	95.36	0.0177	4755	18.0	18.43	577.0
1.013	2	39.06	0.59	95.45	0.0179	4805	19.0	18.43	571.2
1.023	2	40.06	0.59	95.57	0.0150	4769	19.0	18.43	565.1
1.033	2	41.06	0.65	95.65	0.0140	4847	19.0	18.44	558.9
1.043	2	42.06	0.66	95.26	0.0142	4726	18.0	18.43	550.9
1.053	2	43.06	0.71	95.42	0.0231	4820	19.0	18.44	545.5
1.063	2	44.06	0.76	95.44	0.0165	4889	19.0	18.43	545.4
1.073	2	45.06	0.70	95.72	0.0215	4928	19.0	18.44	543.4
1.083	2	46.06	0.66	95.74	0.0179	4881	19.0	18.44	543.1
1.093	2	47.06	0.66	95.74	0.0097	4838	18.0	18.44	541.1
1.103	2	48.06	0.58	95.44	0.0130	4842	18.0	18.44	540.2
1.113	2	49.06	0.67	95.66	0.0112	4826	18.0	18.44	541.3
1.123	2	50.06	0.57	95.63	0.0144	4827	17.0	18.44	545.7
1.133	2	51.06	0.59	95.63	0.0209	4832	17.0	18.45	551.3
1.143	2	52.06	0.47	95.47	0.0268	4792	17.0	18.44	557.2
1.153	2	53.06	0.50	95.62	0.0242	4870	17.0	18.45	564.5
1.163	2	54.06	0.58	95.54	0.0252	4812	17.0	18.45	567.8
1.173	2	55.06	0.61	95.68	0.0246	4829	17.0	18.45	570.1
1.183	2	56.06	0.63	95.67	0.0251	4893	16.0	18.45	572.9
1.193	2	57.06	0.63	95.67	0.0249	4803	16.0	18.45	573.8
1.203	2	58.06	0.63	95.77	0.0258	4865	16.0	18.45	573.8
1.213	2	59.06	0.61	95.85	0.0268	4904	17.0	18.46	573.4
1.223	2	60.06	0.60	95.67	0.0203	4896	16.0	18.46	573.6
1.233	2	61.06	0.55	95.73	0.0318	4872	16.0	18.46	573.2
1.243	2	62.06	0.51	95.85	0.0123	4829	16.0	18.46	571.9
1.253	2	63.06	0.41	95.63	0.0197	4876	16.0	18.46	569.2
1.263	2	64.06	0.41	95.68	0.0159	4854	17.0	18.46	564.9
1.273	2	65.06	0.31	95.65	0.0159	4904	16.0	18.46	562.2
1.283	2	66.06	0.25	95.65	0.0266	4855	16.0	18.47	560.7
1.293	2	67.06	0.24	95.64	0.0170	4828	16.0	18.46	560.1
1.303	2	68.06	0.20	95.69	0.0155	4877	16.0	18.47	560.4
1.313	2	69.06	0.21	95.69	0.0142	4970	17.0	18.47	560.8
1.323	2	70.06	0.16	95.75	0.0111	4839	16.0	18.47	561.4
1.333	2	71.06	0.10	95.39	0.0106	4771	16.0	18.47	559.9
1.343	2	72.06	0.16	95.42	0.0253	4841	17.0	18.47	558.5
1.353	2	73.06	0.17	95.68	0.0210	4812	16.0	18.48	558.1
1.363	2	74.06	0.12	95.55	0.0198	4849	16.0	18.47	558.3
1.373	2	75.06	0.18	95.45	0.0266	4801	16.0	18.49	559.0
1.383	2	76.06	0.13	95.55	0.0207	4845	16.0	18.49	558.7
1.393	2	77.06	0.13	95.41	0.0243	4813	16.0	18.48	560.1
1.403	2	78.06	0.36	95.45	0.0375	4846	16.0	18.50	561.1
1.413	2	79.06	0.36	95.66	0.0339	4748	15.0	18.49	562.6
1.423	2	80.06	0.29	95.50	0.0296	4750	15.0	18.45	563.7
1.433	2	81.06	0.28	95.63	0.0272	4833	15.0	17.89	564.1
1.443	2	82.06	0.24	95.58	0.0240	4810	15.0	17.82	563.1
1.453	2	83.06	0.02	95.62	0.0317	4799	15.0	17.77	560.6
1.463	2	84.06	0.09	95.62	0.0279	4822	16.0	17.75	558.8
1.473	2	85.06	0.14	95.50	0.0237	4825	15.0	17.77	557.7
1.483	2	86.06	0.18	95.36	0.0290	4774	15.0	17.82	556.0
1.493	2	87.06	0.19	95.45	0.0256	4810	15.0	17.84	556.5
1.503	2	88.06	0.25	95.43	0.0305	4750	15.0	17.88	555.2
1.513	2	89.06	0.18	95.42	0.0251	4762	15.0	17.99	553.2
1.523	2	90.06	0.21	95.60	0.0275	4753	15.0	18.08	554.1
1.533	2	91.06	0.38	95.54	0.0212	4696	15.0	18.15	554.5
1.543	2	92.06	0.38	95.63	0.0206	4772	15.0	18.23	551.8
1.553	2	93.06	0.43	95.66	0.0180	4743	15.0	18.28	545.3
1.563	2	94.06	0.43	95.66	0.0189	4764	16.0	18.37	508.4
1.573	2	95.06	0.46	95.77	0.0161	4719	16.0	18.47	504.6
1.583	2	96.06	0.61	95.68	0.0155	4786	15.0	18.55	503.2
1.593	2	97.06	0.69	95.76	0.0143	4819	15.0	18.62	501.7
1.603	2	98.06	0.83	96.02	0.0161	4791	15.0	18.72	502.5
1.613	2	99.06	0.94	95.94	0.0105	4780	15.0	18.81	502.8
1.623	2	100.06	0.98	95.96	0.0116	4754	16.0	18.88	502.3
1.633	2	101.06	1.09	95.82	0.0143	4742	17.0	18.95	501.4
1.643	2	102.06	1.19	96.02	0.0117	4840	17.0	19.03	499.3
1.653	2	103.06	1.15	96.13	0.0094	4927	17.0	19.10	497.8
1.663	2	104.06	1.45	96.51	0.0069	4964	18.0	19.18	497.3
1.673	2	105.06	5.06	97.70	0.0003	4913	21.0	19.30	495.9
1.683	2	106.06	5.30	98.07	0.0003	4964	25.0	19.36	488.2
1.693	2	107.06	4.82	999.00	0.0000	4815	30.0	19.46	470.5
1.703	2	108.06	4.72	999.00	0.0000	4796	39.0	19.54	438.1
1.713	2	109.06	4.41	999.00	0.0000	4683	51.0	19.62	387.9
1.723	2	110.06	4.18	999.00	0.0000	4637	67.0	19.70	318.8
1.733	2	111.06	3.97	999.00	0.0000	5005	85.0	19.80	240.2
1.743	2	112.06	3.14	999.00	0.0000	6039	100.0	19.90	168.0
1.753	2	113.06	3.42	999.00	0.0000	6428	107.0	19.97	121.6
1.763	2	114.06	2.94	999.00	0.0000	11599	104.0	20.06	95.0
